Surface Pressure: 1080.000 
Secant Angle :  0.000 
CO2 ppm : 400.000 
 
Index   Water        Fixed       Ozone    Temperature 
  1   1.4452e+15   9.5563e+16   1.6026e+14   212.79 
  2   3.0423e+15   1.9320e+17   3.1844e+14   224.45 
  3   5.4921e+15   3.3380e+17   6.6676e+14   235.39 
  4   9.1473e+15   5.2045e+17   1.6085e+15   247.18 
  5   1.4004e+16   7.5594e+17   3.1179e+15   255.00 
  6   2.0078e+16   1.0454e+18   6.7131e+15   261.82 
  7   2.7452e+16   1.3896e+18   1.2445e+16   267.93 
  8   3.5774e+16   1.7902e+18   2.0411e+16   270.35 
  9   4.4991e+16   2.2515e+18   3.0964e+16   270.16 
 10   5.5384e+16   2.7716e+18   4.4124e+16   269.48 
 11   6.7056e+16   3.3556e+18   6.0497e+16   268.23 
 12   7.9970e+16   4.0019e+18   8.2053e+16   266.82 
 13   9.4161e+16   4.7120e+18   1.0507e+17   262.23 
 14   1.0966e+17   5.4877e+18   1.3082e+17   257.09 
 15   1.2647e+17   6.3290e+18   1.6190e+17   253.02 
 16   1.4463e+17   7.2374e+18   1.9940e+17   249.31 
 17   1.6407e+17   8.2106e+18   2.3739e+17   246.64 
 18   1.8490e+17   9.2526e+18   2.7114e+17   245.19 
 19   2.0704e+17   1.0361e+19   3.0676e+17   243.18 
 20   2.3053e+17   1.1536e+19   3.4408e+17   240.55 
 21   2.5536e+17   1.2779e+19   3.8193e+17   237.99 
 22   2.8154e+17   1.4089e+19   4.1544e+17   235.38 
 23   3.0905e+17   1.5466e+19   4.4953e+17   232.86 
 24   3.3790e+17   1.6909e+19   4.8396e+17   230.44 
 25   3.6807e+17   1.8419e+19   5.1725e+17   228.13 
 26   3.9956e+17   1.9995e+19   5.4977e+17   225.97 
 27   4.3236e+17   2.1636e+19   5.7000e+17   224.51 
 28   4.6808e+17   2.3342e+19   5.8503e+17   223.27 
 29   5.1910e+17   2.5113e+19   5.9330e+17   222.07 
 30   5.7314e+17   2.6947e+19   5.9731e+17   221.05 
 31   6.2116e+17   2.8845e+19   5.9667e+17   220.43 
 32   6.7071e+17   3.0804e+19   5.9292e+17   219.86 
 33   7.2234e+17   3.2825e+19   5.8613e+17   219.30 
 34   7.7602e+17   3.4908e+19   5.7618e+17   218.76 
 35   8.3258e+17   3.7049e+19   5.6426e+17   218.20 
 36   9.0212e+17   3.9250e+19   5.6505e+17   217.29 
 37   9.7805e+17   4.1507e+19   5.6867e+17   216.28 
 38   1.0603e+18   4.3824e+19   5.6720e+17   215.31 
 39   1.1501e+18   4.6195e+19   5.6233e+17   214.34 
 40   1.2903e+18   4.8621e+19   5.6072e+17   212.97 
 41   1.4556e+18   5.1101e+19   5.5945e+17   211.49 
 42   1.6811e+18   5.3635e+19   5.5512e+17   210.04 
 43   2.0644e+18   5.6219e+19   5.4479e+17   208.63 
 44   2.5598e+18   5.8855e+19   5.3300e+17   207.42 
 45   3.7391e+18   6.1540e+19   5.2572e+17   207.54 
 46   5.1113e+18   6.4273e+19   5.1854e+17   207.96 
 47   6.2952e+18   6.7052e+19   5.1279e+17   208.49 
 48   7.4652e+18   6.9877e+19   5.0654e+17   209.04 
 49   8.8321e+18   7.2749e+19   4.9346e+17   209.73 
 50   1.0520e+19   7.5661e+19   4.6968e+17   210.68 
 51   1.3535e+19   7.8615e+19   4.5601e+17   212.35 
 52   1.7456e+19   8.1612e+19   4.4846e+17   214.42 
 53   2.1564e+19   8.4645e+19   4.3980e+17   216.45 
 54   2.5858e+19   8.7718e+19   4.3005e+17   218.43 
 55   3.0411e+19   9.0827e+19   4.1909e+17   220.38 
 56   4.4614e+19   9.3969e+19   3.9266e+17   222.42 
 57   6.6280e+19   9.7143e+19   3.5407e+17   224.52 
 58   8.8894e+19   1.0035e+20   3.1322e+17   226.58 
 59   1.1245e+20   1.0359e+20   2.7011e+17   228.60 
 60   1.3841e+20   1.0685e+20   2.3245e+17   230.99 
 61   1.6851e+20   1.1015e+20   2.0942e+17   234.19 
 62   1.9983e+20   1.1347e+20   1.8576e+17   237.36 
 63   2.3226e+20   1.1682e+20   1.6093e+17   240.47 
 64   3.1391e+20   1.2017e+20   1.4480e+17   243.20 
 65   4.4728e+20   1.2354e+20   1.3789e+17   245.57 
 66   5.8540e+20   1.2693e+20   1.3060e+17   247.90 
 67   7.3958e+20   1.3034e+20   1.2262e+17   250.25 
 68   9.4901e+20   1.3375e+20   1.1298e+17   252.81 
 69   1.1713e+21   1.3717e+20   1.0274e+17   255.36 
 70   1.3968e+21   1.4061e+20   9.2382e+16   257.80 
 71   1.6022e+21   1.4407e+20   8.3921e+16   259.62 
 72   1.8285e+21   1.4754e+20   7.6604e+16   261.29 
 73   2.1262e+21   1.5100e+20   7.2128e+16   262.90 
 74   2.4356e+21   1.5447e+20   6.7611e+16   264.46 
 75   2.7007e+21   1.5796e+20   5.9286e+16   265.50 
 76   2.9870e+21   1.6145e+20   5.1882e+16   266.58 
 77   3.3658e+21   1.6493e+20   5.0484e+16   268.27 
 78   3.7556e+21   1.6840e+20   4.9180e+16   269.96 
 79   4.1615e+21   1.7188e+20   4.7832e+16   271.64 
 80   4.7138e+21   1.7532e+20   4.6786e+16   273.63 
 81   5.3318e+21   1.7875e+20   4.5829e+16   275.73 
 82   5.9601e+21   1.8218e+20   4.4766e+16   277.68 
 83   6.5968e+21   1.8560e+20   4.3565e+16   279.45 
 84   7.2179e+21   1.8902e+20   4.1892e+16   281.15 
 85   7.7343e+21   1.9247e+20   3.8624e+16   282.65 
 86   8.1970e+21   1.9592e+20   3.7857e+16   283.71 
 87   8.6483e+21   1.9937e+20   3.8079e+16   284.61 
 88   9.1055e+21   2.0280e+20   3.8288e+16   285.49 
 89   9.9995e+21   2.0612e+20   3.8420e+16   286.92 
 90   1.1518e+22   2.0928e+20   3.8446e+16   289.13 
 91   1.3072e+22   2.1241e+20   3.8455e+16   291.32 
 92   1.4848e+22   2.1548e+20   3.8416e+16   293.51 
 93   1.6787e+22   2.1849e+20   3.8340e+16   295.70 
 94   1.8845e+22   2.2145e+20   3.8208e+16   298.08 
 95   2.1628e+22   2.2422e+20   3.7777e+16   302.10 
 96   2.4613e+22   2.2691e+20   3.7754e+16   305.26 
 97   2.7648e+22   2.2958e+20   3.7882e+16   308.00 
 98   3.0731e+22   2.3222e+20   3.8000e+16   310.70 
 99   3.3859e+22   2.3482e+20   3.8106e+16   313.36 
100   3.7032e+22   2.3738e+20   3.8200e+16   315.99 
 
Index  Efreq        Emis 
  1   769.2308     0.9767   
  2   800.0000     0.9829   
  3   833.3333     0.9889   
  4   869.5652     0.9919   
  5   909.0909     0.9925   
  6   952.3810     0.9913   
  7   1000.0000     0.9891   
  8   1041.6666     0.9875   
  9   1086.9565     0.9863   
 10   1136.3636     0.9851   
 11   1190.4762     0.9840   
 12   1250.0000     0.9831   
 13   2439.0244     0.9776   
 14   2500.0000     0.9770   
 15   2564.1025     0.9764   
 16   2631.5789     0.9756   
 17   2702.7026     0.9745   
 18   2777.7778     0.9732   
 19   2857.1428     0.9715   
 
Chan ID   Freq    BT(K)
2212   647.5000   211.7844 
2213   648.1250   210.9345 
2214   648.7500   217.4818 
2215   649.3750   214.7477 
  1   650.0000   211.1263 
  2   650.6250   210.4879 
  3   651.2500   207.8399 
  4   651.8750   209.5693 
  5   652.5000   208.2632 
  6   653.1250   208.6293 
  7   653.7500   209.1234 
  8   654.3750   207.5369 
  9   655.0000   209.6550 
 10   655.6250   207.9703 
 11   656.2500   209.1341 
 12   656.8750   209.0593 
 13   657.5000   208.0198 
 14   658.1250   209.5525 
 15   658.7500   207.5677 
 16   659.3750   208.7818 
 17   660.0000   208.4827 
 18   660.6250   207.5327 
 19   661.2500   208.9174 
 20   661.8750   209.5473 
 21   662.5000   216.2071 
 22   663.1250   215.4854 
 23   663.7500   210.7982 
 24   664.3750   210.6285 
 25   665.0000   210.8574 
 26   665.6250   209.0208 
 27   666.2500   206.8744 
 28   666.8750   215.4124 
 29   667.5000   236.5578 
 30   668.1250   242.9530 
 31   668.7500   232.5957 
 32   669.3750   222.3873 
 33   670.0000   215.4588 
 34   670.6250   210.7594 
 35   671.2500   211.4074 
 36   671.8750   208.9445 
 37   672.5000   209.6391 
 38   673.1250   210.3718 
 39   673.7500   208.0991 
 40   674.3750   210.6286 
 41   675.0000   208.5924 
 42   675.6250   209.2967 
 43   676.2500   210.3502 
 44   676.8750   207.9387 
 45   677.5000   210.7176 
 46   678.1250   208.8612 
 47   678.7500   209.3950 
 48   679.3750   210.9415 
 49   680.0000   207.9386 
 50   680.6250   210.5540 
 51   681.2500   209.0047 
 52   681.8750   208.4188 
 53   682.5000   210.3318 
 54   683.1250   207.3524 
 55   683.7500   209.6788 
 56   684.3750   208.7243 
 57   685.0000   207.4753 
 58   685.6250   209.6911 
 59   686.2500   206.9444 
 60   686.8750   208.1042 
 61   687.5000   208.0952 
 62   688.1250   206.7591 
 63   688.7500   209.9852 
 64   689.3750   208.3855 
 65   690.0000   207.8912 
 66   690.6250   208.1633 
 67   691.2500   206.3023 
 68   691.8750   207.8465 
 69   692.5000   207.2877 
 70   693.1250   206.6165 
 71   693.7500   207.6768 
 72   694.3750   207.0971 
 73   695.0000   207.3222 
 74   695.6250   208.2936 
 75   696.2500   207.9498 
 76   696.8750   208.3768 
 77   697.5000   209.9189 
 78   698.1250   209.0464 
 79   698.7500   210.1145 
 80   699.3750   211.6841 
 81   700.0000   210.1808 
 82   700.6250   212.3921 
 83   701.2500   213.0655 
 84   701.8750   212.6646 
 85   702.5000   215.0798 
 86   703.1250   215.1059 
 87   703.7500   217.9673 
 88   704.3750   219.4696 
 89   705.0000   219.0283 
 90   705.6250   221.9765 
 91   706.2500   222.9976 
 92   706.8750   222.7970 
 93   707.5000   225.0311 
 94   708.1250   225.0789 
 95   708.7500   225.6373 
 96   709.3750   227.8000 
 97   710.0000   228.0414 
 98   710.6250   229.0811 
 99   711.2500   230.7962 
100   711.8750   230.0775 
101   712.5000   233.7227 
102   713.1250   233.3157 
103   713.7500   232.8124 
104   714.3750   237.3094 
105   715.0000   234.2315 
106   715.6250   237.3939 
107   716.2500   238.7438 
108   716.8750   235.1610 
109   717.5000   239.4828 
110   718.1250   233.6539 
111   718.7500   222.2729 
112   719.3750   214.5485 
113   720.0000   211.6233 
114   720.6250   216.5161 
115   721.2500   228.0178 
116   721.8750   239.9960 
117   722.5000   244.0701 
118   723.1250   245.2876 
119   723.7500   242.2262 
120   724.3750   245.4210 
121   725.0000   244.6647 
122   725.6250   242.1620 
123   726.2500   245.5426 
124   726.8750   240.7592 
125   727.5000   243.1822 
126   728.1250   242.3410 
127   728.7500   239.2217 
128   729.3750   242.5464 
129   730.0000   237.9520 
130   730.6250   241.2878 
131   731.2500   240.9943 
132   731.8750   239.9155 
133   732.5000   243.5847 
134   733.1250   239.4327 
135   733.7500   243.1805 
136   734.3750   241.5964 
137   735.0000   240.9531 
138   735.6250   244.0119 
139   736.2500   239.7806 
140   736.8750   243.5242 
141   737.5000   241.9676 
142   738.1250   243.4105 
143   738.7500   245.1010 
144   739.3750   242.2374 
145   740.0000   245.4937 
146   740.6250   239.4873 
147   741.2500   234.6358 
148   741.8750   237.9267 
149   742.5000   243.5727 
150   743.1250   247.9767 
151   743.7500   245.4913 
152   744.3750   248.3929 
153   745.0000   247.9290 
154   745.6250   247.8173 
155   746.2500   249.9509 
156   746.8750   247.8718 
157   747.5000   250.5237 
158   748.1250   249.0311 
159   748.7500   249.9682 
160   749.3750   250.6516 
161   750.0000   249.3386 
162   750.6250   250.9209 
163   751.2500   250.1646 
164   751.8750   251.8630 
165   752.5000   251.7782 
166   753.1250   251.6725 
167   753.7500   252.7970 
168   754.3750   251.9397 
169   755.0000   252.9110 
170   755.6250   252.5727 
171   756.2500   252.8880 
172   756.8750   252.8593 
173   757.5000   252.3838 
174   758.1250   253.2450 
175   758.7500   253.2584 
176   759.3750   253.5845 
177   760.0000   253.6169 
178   760.6250   253.6300 
179   761.2500   253.9024 
180   761.8750   253.7341 
181   762.5000   253.8948 
182   763.1250   253.8146 
183   763.7500   253.8678 
184   764.3750   253.8806 
185   765.0000   253.9319 
186   765.6250   254.0829 
187   766.2500   254.1095 
188   766.8750   254.1958 
189   767.5000   254.2623 
190   768.1250   254.2704 
191   768.7500   254.4206 
192   769.3750   254.4941 
193   770.0000   254.6144 
194   770.6250   254.3936 
195   771.2500   254.1394 
196   771.8750   254.1799 
197   772.5000   254.2641 
198   773.1250   254.2358 
199   773.7500   254.2225 
200   774.3750   254.2560 
201   775.0000   254.5600 
202   775.6250   254.7998 
203   776.2500   254.7054 
204   776.8750   254.8187 
205   777.5000   254.5974 
206   778.1250   254.3119 
207   778.7500   254.4550 
208   779.3750   254.6892 
209   780.0000   254.4653 
210   780.6250   254.2943 
211   781.2500   254.2900 
212   781.8750   254.2709 
213   782.5000   254.3005 
214   783.1250   254.3593 
215   783.7500   254.5476 
216   784.3750   254.7995 
217   785.0000   254.6293 
218   785.6250   254.3871 
219   786.2500   254.3385 
220   786.8750   254.3432 
221   787.5000   254.3673 
222   788.1250   254.3618 
223   788.7500   254.3375 
224   789.3750   254.3343 
225   790.0000   254.3382 
226   790.6250   254.2105 
227   791.2500   253.2228 
228   791.8750   252.8806 
229   792.5000   253.9497 
230   793.1250   254.4471 
231   793.7500   254.8129 
232   794.3750   254.6604 
233   795.0000   254.4643 
234   795.6250   254.5331 
235   796.2500   254.5706 
236   796.8750   254.4919 
237   797.5000   254.6616 
238   798.1250   254.5752 
239   798.7500   254.7484 
240   799.3750   254.7447 
241   800.0000   254.3789 
242   800.6250   254.3448 
243   801.2500   254.3317 
244   801.8750   254.3510 
245   802.5000   254.6167 
246   803.1250   255.0393 
247   803.7500   254.9493 
248   804.3750   254.4744 
249   805.0000   254.3684 
250   805.6250   254.4221 
251   806.2500   254.4148 
252   806.8750   254.4063 
253   807.5000   254.5506 
254   808.1250   254.8126 
255   808.7500   254.5889 
256   809.3750   254.3422 
257   810.0000   254.4005 
258   810.6250   254.3954 
259   811.2500   254.3985 
260   811.8750   254.3968 
261   812.5000   254.3947 
262   813.1250   254.4877 
263   813.7500   254.7957 
264   814.3750   254.8905 
265   815.0000   254.6154 
266   815.6250   254.4052 
267   816.2500   254.3981 
268   816.8750   254.3839 
269   817.5000   254.3930 
270   818.1250   254.3927 
271   818.7500   254.3994 
272   819.3750   254.3995 
273   820.0000   254.4074 
274   820.6250   254.4012 
275   821.2500   254.4090 
276   821.8750   254.4132 
277   822.5000   254.4247 
278   823.1250   254.4269 
279   823.7500   254.4397 
280   824.3750   254.4699 
281   825.0000   254.5694 
282   825.6250   254.5332 
283   826.2500   254.4783 
284   826.8750   254.5586 
285   827.5000   254.7887 
286   828.1250   254.7033 
287   828.7500   254.4835 
288   829.3750   254.4484 
289   830.0000   254.4571 
290   830.6250   254.4585 
291   831.2500   254.4652 
292   831.8750   254.4581 
293   832.5000   254.4614 
294   833.1250   254.4543 
295   833.7500   254.4602 
296   834.3750   254.4523 
297   835.0000   254.4640 
298   835.6250   254.4681 
299   836.2500   254.4506 
300   836.8750   254.4337 
301   837.5000   254.4335 
302   838.1250   254.4271 
303   838.7500   254.4379 
304   839.3750   254.6318 
305   840.0000   254.8103 
306   840.6250   254.5393 
307   841.2500   254.4054 
308   841.8750   254.3943 
309   842.5000   254.3585 
310   843.1250   254.3135 
311   843.7500   254.2877 
312   844.3750   254.2591 
313   845.0000   254.2373 
314   845.6250   254.2121 
315   846.2500   254.1960 
316   846.8750   254.1868 
317   847.5000   254.1903 
318   848.1250   254.2036 
319   848.7500   254.2807 
320   849.3750   254.5131 
321   850.0000   254.4362 
322   850.6250   254.2333 
323   851.2500   254.2596 
324   851.8750   254.5851 
325   852.5000   255.0383 
326   853.1250   254.8278 
327   853.7500   254.5439 
328   854.3750   254.7697 
329   855.0000   254.6933 
330   855.6250   254.4284 
331   856.2500   254.4047 
332   856.8750   254.4036 
333   857.5000   254.4149 
334   858.1250   254.4239 
335   858.7500   254.4381 
336   859.3750   254.4197 
337   860.0000   254.4199 
338   860.6250   254.4055 
339   861.2500   254.4050 
340   861.8750   254.3986 
341   862.5000   254.3964 
342   863.1250   254.3876 
343   863.7500   254.3871 
344   864.3750   254.4134 
345   865.0000   254.5465 
346   865.6250   254.5540 
347   866.2500   254.4057 
348   866.8750   254.3596 
349   867.5000   254.3600 
350   868.1250   254.3550 
351   868.7500   254.3473 
352   869.3750   254.3472 
353   870.0000   254.3557 
354   870.6250   254.4827 
355   871.2500   254.6689 
356   871.8750   254.4932 
357   872.5000   254.3566 
358   873.1250   254.3484 
359   873.7500   254.3461 
360   874.3750   254.3452 
361   875.0000   254.3399 
362   875.6250   254.3424 
363   876.2500   254.3461 
364   876.8750   254.3487 
365   877.5000   254.3513 
366   878.1250   254.3725 
367   878.7500   254.2662 
368   879.3750   254.2321 
369   880.0000   254.3394 
370   880.6250   254.3477 
371   881.2500   254.3339 
372   881.8750   254.2953 
373   882.5000   254.2852 
374   883.1250   254.3212 
375   883.7500   254.4059 
376   884.3750   254.3380 
377   885.0000   254.2607 
378   885.6250   254.2549 
379   886.2500   254.3033 
380   886.8750   254.5000 
381   887.5000   254.5185 
382   888.1250   254.3282 
383   888.7500   254.2836 
384   889.3750   254.2487 
385   890.0000   254.2691 
386   890.6250   254.2706 
387   891.2500   254.2817 
388   891.8750   254.2694 
389   892.5000   254.2718 
390   893.1250   254.2779 
391   893.7500   254.2882 
392   894.3750   254.2886 
393   895.0000   254.2745 
394   895.6250   254.2109 
395   896.2500   254.2101 
396   896.8750   254.3071 
397   897.5000   254.3595 
398   898.1250   254.3471 
399   898.7500   254.3470 
400   899.3750   254.3530 
401   900.0000   254.3589 
402   900.6250   254.3618 
403   901.2500   254.3647 
404   901.8750   254.3638 
405   902.5000   254.3641 
406   903.1250   254.3591 
407   903.7500   254.3538 
408   904.3750   254.3483 
409   905.0000   254.3570 
410   905.6250   254.3801 
411   906.2500   254.4153 
412   906.8750   254.3748 
413   907.5000   254.3488 
414   908.1250   254.4211 
415   908.7500   254.6863 
416   909.3750   254.5940 
417   910.0000   254.3417 
418   910.6250   254.2965 
419   911.2500   254.2711 
420   911.8750   254.2589 
421   912.5000   254.2447 
422   913.1250   254.2384 
423   913.7500   254.2412 
424   914.3750   254.2346 
425   915.0000   254.2066 
426   915.6250   254.2040 
427   916.2500   254.2169 
428   916.8750   254.2276 
429   917.5000   254.2331 
430   918.1250   254.2756 
431   918.7500   254.2776 
432   919.3750   254.2319 
433   920.0000   254.2392 
434   920.6250   254.2321 
435   921.2500   254.1345 
436   921.8750   254.2670 
437   922.5000   254.2041 
438   923.1250   254.0348 
439   923.7500   254.2483 
440   924.3750   254.3860 
441   925.0000   254.4561 
442   925.6250   254.3343 
443   926.2500   254.2437 
444   926.8750   254.2226 
445   927.5000   254.2121 
446   928.1250   254.1980 
447   928.7500   254.2120 
448   929.3750   254.2118 
449   930.0000   254.2236 
450   930.6250   254.2527 
451   931.2500   254.2871 
452   931.8750   254.3103 
453   932.5000   254.3417 
454   933.1250   254.3669 
455   933.7500   254.3902 
456   934.3750   254.4101 
457   935.0000   254.4299 
458   935.6250   254.4412 
459   936.2500   254.4513 
460   936.8750   254.4564 
461   937.5000   254.4662 
462   938.1250   254.4639 
463   938.7500   254.4624 
464   939.3750   254.4677 
465   940.0000   254.4669 
466   940.6250   254.4712 
467   941.2500   254.4852 
468   941.8750   254.4630 
469   942.5000   254.4483 
470   943.1250   254.4573 
471   943.7500   254.4445 
472   944.3750   254.4393 
473   945.0000   254.4588 
474   945.6250   254.4220 
475   946.2500   254.4196 
476   946.8750   254.4326 
477   947.5000   254.4725 
478   948.1250   254.6829 
479   948.7500   254.6103 
480   949.3750   254.3761 
481   950.0000   254.3937 
482   950.6250   254.4077 
483   951.2500   254.4101 
484   951.8750   254.4431 
485   952.5000   254.4511 
486   953.1250   254.4778 
487   953.7500   254.5089 
488   954.3750   254.4426 
489   955.0000   254.4967 
490   955.6250   254.4984 
491   956.2500   254.4521 
492   956.8750   254.4447 
493   957.5000   254.4477 
494   958.1250   254.4369 
495   958.7500   254.4660 
496   959.3750   254.4594 
497   960.0000   254.4720 
498   960.6250   254.4593 
499   961.2500   254.4590 
500   961.8750   254.4521 
501   962.5000   254.4564 
502   963.1250   254.4388 
503   963.7500   254.4545 
504   964.3750   254.4376 
505   965.0000   254.4483 
506   965.6250   254.4541 
507   966.2500   254.4573 
508   966.8750   254.4630 
509   967.5000   254.4453 
510   968.1250   254.4207 
511   968.7500   254.4255 
512   969.3750   254.3972 
513   970.0000   254.4218 
514   970.6250   254.4060 
515   971.2500   254.4626 
516   971.8750   254.4165 
517   972.5000   254.4245 
518   973.1250   254.4144 
519   973.7500   254.4650 
520   974.3750   254.4122 
521   975.0000   254.4121 
522   975.6250   254.4470 
523   976.2500   254.4573 
524   976.8750   254.4037 
525   977.5000   254.4041 
526   978.1250   254.3562 
527   978.7500   254.3337 
528   979.3750   254.3290 
529   980.0000   254.3417 
530   980.6250   254.2959 
531   981.2500   254.2978 
532   981.8750   254.2598 
533   982.5000   254.2862 
534   983.1250   254.2233 
535   983.7500   254.2170 
536   984.3750   254.1504 
537   985.0000   254.1555 
538   985.6250   254.1265 
539   986.2500   254.0574 
540   986.8750   253.9799 
541   987.5000   253.9470 
542   988.1250   253.9742 
543   988.7500   253.8695 
544   989.3750   253.7440 
545   990.0000   253.7095 
546   990.6250   253.7091 
547   991.2500   253.6594 
548   991.8750   253.3940 
549   992.5000   253.3898 
550   993.1250   253.2933 
551   993.7500   253.3832 
552   994.3750   252.9448 
553   995.0000   252.9184 
554   995.6250   252.7628 
555   996.2500   253.0103 
556   996.8750   252.4914 
557   997.5000   252.3188 
558   998.1250   252.1651 
559   998.7500   252.3982 
560   999.3750   251.6975 
561   1000.0000   251.4235 
562   1000.6250   251.3755 
563   1001.2500   251.5452 
564   1001.8750   250.9638 
565   1002.5000   250.5379 
566   1003.1250   250.4265 
567   1003.7500   250.4947 
568   1004.3750   249.8807 
569   1005.0000   249.3063 
570   1005.6250   249.2148 
571   1006.2500   249.0964 
572   1006.8750   248.4749 
573   1007.5000   248.0131 
574   1008.1250   248.1982 
575   1008.7500   248.0651 
576   1009.3750   247.0485 
577   1010.0000   246.6134 
578   1010.6250   246.6786 
579   1011.2500   246.0628 
580   1011.8750   245.0918 
581   1012.5000   245.1661 
582   1013.1250   245.4579 
583   1013.7500   244.5456 
584   1014.3750   244.0749 
585   1015.0000   244.2139 
586   1015.6250   243.9182 
587   1016.2500   242.7991 
588   1016.8750   242.6530 
589   1017.5000   242.6574 
590   1018.1250   241.3913 
591   1018.7500   240.5927 
592   1019.3750   241.3075 
593   1020.0000   240.7234 
594   1020.6250   239.3663 
595   1021.2500   239.7218 
596   1021.8750   240.2276 
597   1022.5000   239.1957 
598   1023.1250   238.9478 
599   1023.7500   239.4169 
600   1024.3750   238.6735 
601   1025.0000   238.1280 
602   1025.6250   238.7632 
603   1026.2500   238.5255 
604   1026.8750   237.4621 
605   1027.5000   238.0492 
606   1028.1250   238.8771 
607   1028.7500   237.8766 
608   1029.3750   238.1057 
609   1030.0000   239.7561 
610   1030.6250   239.2312 
611   1031.2500   238.3583 
612   1031.8750   239.3981 
613   1032.5000   238.9460 
614   1033.1250   237.9543 
615   1033.7500   238.5639 
616   1034.3750   237.2903 
617   1035.0000   236.0794 
618   1035.6250   236.6366 
619   1036.2500   235.4505 
620   1036.8750   234.0761 
621   1037.5000   234.0355 
622   1038.1250   232.9032 
623   1038.7500   231.5563 
624   1039.3750   230.5212 
625   1040.0000   229.3997 
626   1040.6250   228.6127 
627   1041.2500   229.9666 
628   1041.8750   239.1728 
629   1042.5000   248.6014 
630   1043.1250   251.0534 
631   1043.7500   250.5650 
632   1044.3750   247.5699 
633   1045.0000   245.3848 
634   1045.6250   243.2872 
635   1046.2500   239.3401 
636   1046.8750   238.0443 
637   1047.5000   234.8653 
638   1048.1250   233.4761 
639   1048.7500   234.6443 
640   1049.3750   233.7785 
641   1050.0000   232.8960 
642   1050.6250   230.4805 
643   1051.2500   232.1793 
644   1051.8750   231.4636 
645   1052.5000   230.3644 
646   1053.1250   230.2698 
647   1053.7500   230.8018 
648   1054.3750   232.0388 
649   1055.0000   233.2539 
650   1055.6250   233.4169 
651   1056.2500   232.6862 
652   1056.8750   234.4590 
653   1057.5000   235.6396 
654   1058.1250   236.0137 
655   1058.7500   236.3452 
656   1059.3750   237.1358 
657   1060.0000   236.7648 
658   1060.6250   237.6874 
659   1061.2500   238.9561 
660   1061.8750   240.5250 
661   1062.5000   242.2784 
662   1063.1250   243.8290 
663   1063.7500   245.0490 
664   1064.3750   246.6100 
665   1065.0000   247.9242 
666   1065.6250   249.5123 
667   1066.2500   250.5611 
668   1066.8750   251.1691 
669   1067.5000   251.6792 
670   1068.1250   252.0553 
671   1068.7500   252.0902 
672   1069.3750   252.9500 
673   1070.0000   253.4590 
674   1070.6250   253.6080 
675   1071.2500   253.7706 
676   1071.8750   253.8979 
677   1072.5000   253.9752 
678   1073.1250   253.9550 
679   1073.7500   254.0480 
680   1074.3750   253.8605 
681   1075.0000   253.2811 
682   1075.6250   253.6442 
683   1076.2500   253.9013 
684   1076.8750   253.9114 
685   1077.5000   253.8330 
686   1078.1250   253.8920 
687   1078.7500   253.8874 
688   1079.3750   253.9061 
689   1080.0000   253.7612 
690   1080.6250   253.4848 
691   1081.2500   253.1220 
692   1081.8750   253.5671 
693   1082.5000   253.8616 
694   1083.1250   253.8907 
695   1083.7500   253.8388 
696   1084.3750   253.8302 
697   1085.0000   253.8865 
698   1085.6250   253.8595 
699   1086.2500   253.7288 
700   1086.8750   253.5927 
701   1087.5000   253.3851 
702   1088.1250   253.5534 
703   1088.7500   253.6688 
704   1089.3750   253.6902 
705   1090.0000   253.7005 
706   1090.6250   253.9626 
707   1091.2500   254.1404 
708   1091.8750   253.8997 
709   1092.5000   253.6900 
710   1093.1250   253.6721 
711   1093.7500   253.5776 
712   1094.3750   253.4246 
713   1095.0000   253.4297 
2216   1095.6250   253.6980 
2217   1096.2500   253.7353 
2218   1096.8750   253.7332 
2219   1097.5000   253.6912 
2220   1207.5000   254.3569 
2221   1208.1250   254.4444 
2222   1208.7500   254.5038 
2223   1209.3750   254.4819 
714   1210.0000   254.4446 
715   1210.6250   254.5648 
716   1211.2500   254.7817 
717   1211.8750   254.6420 
718   1212.5000   254.6729 
719   1213.1250   254.8648 
720   1213.7500   254.5978 
721   1214.3750   254.5768 
722   1215.0000   254.6022 
723   1215.6250   254.4369 
724   1216.2500   254.1940 
725   1216.8750   254.3413 
726   1217.5000   254.4815 
727   1218.1250   254.6301 
728   1218.7500   254.5755 
729   1219.3750   254.2847 
730   1220.0000   253.9859 
731   1220.6250   254.2123 
732   1221.2500   254.2399 
733   1221.8750   254.1301 
734   1222.5000   254.1497 
735   1223.1250   254.2820 
736   1223.7500   254.4481 
737   1224.3750   254.5914 
738   1225.0000   254.0575 
739   1225.6250   254.4200 
740   1226.2500   254.6690 
741   1226.8750   254.5932 
742   1227.5000   254.4996 
743   1228.1250   254.1678 
744   1228.7500   253.4973 
745   1229.3750   253.2587 
746   1230.0000   253.1999 
747   1230.6250   253.7380 
748   1231.2500   254.3371 
749   1231.8750   254.3767 
750   1232.5000   254.3475 
751   1233.1250   253.9861 
752   1233.7500   253.9494 
753   1234.3750   254.2975 
754   1235.0000   254.2636 
755   1235.6250   253.2880 
756   1236.2500   252.4400 
757   1236.8750   252.3340 
758   1237.5000   252.5692 
759   1238.1250   253.0628 
760   1238.7500   253.3245 
761   1239.3750   254.4072 
762   1240.0000   254.3279 
763   1240.6250   253.2514 
764   1241.2500   252.4866 
765   1241.8750   252.7710 
766   1242.5000   252.7508 
767   1243.1250   253.1761 
768   1243.7500   252.8962 
769   1244.3750   253.0324 
770   1245.0000   252.0043 
771   1245.6250   250.8122 
772   1246.2500   251.3616 
773   1246.8750   252.1405 
774   1247.5000   249.9261 
775   1248.1250   250.1607 
776   1248.7500   253.2240 
777   1249.3750   251.9391 
778   1250.0000   251.3742 
779   1250.6250   253.0778 
780   1251.2500   253.7759 
781   1251.8750   253.5362 
782   1252.5000   252.8280 
783   1253.1250   248.8666 
784   1253.7500   246.1712 
785   1254.3750   249.5690 
786   1255.0000   250.4521 
787   1255.6250   251.4744 
788   1256.2500   250.7430 
789   1256.8750   250.5900 
790   1257.5000   252.1867 
791   1258.1250   252.6632 
792   1258.7500   251.8707 
793   1259.3750   245.7166 
794   1260.0000   239.6633 
795   1260.6250   241.9772 
796   1261.2500   246.4131 
797   1261.8750   246.5102 
798   1262.5000   246.6833 
799   1263.1250   246.4308 
800   1263.7500   247.6176 
801   1264.3750   250.0255 
802   1265.0000   247.0367 
803   1265.6250   245.7477 
804   1266.2500   248.8430 
805   1266.8750   249.4317 
806   1267.5000   244.7246 
807   1268.1250   241.8286 
808   1268.7500   242.7911 
809   1269.3750   245.0994 
810   1270.0000   245.1762 
811   1270.6250   241.1501 
812   1271.2500   234.6482 
813   1271.8750   237.5931 
814   1272.5000   246.7898 
815   1273.1250   248.7384 
816   1273.7500   248.2694 
817   1274.3750   245.9848 
818   1275.0000   241.0055 
819   1275.6250   242.7809 
820   1276.2500   244.9976 
821   1276.8750   240.8981 
822   1277.5000   241.4181 
823   1278.1250   246.3917 
824   1278.7500   248.5133 
825   1279.3750   248.4658 
826   1280.0000   248.5548 
827   1280.6250   248.6806 
828   1281.2500   246.7717 
829   1281.8750   245.2655 
830   1282.5000   241.8239 
831   1283.1250   238.0066 
832   1283.7500   244.8442 
833   1284.3750   251.6120 
834   1285.0000   253.3925 
835   1285.6250   252.6843 
836   1286.2500   251.7245 
837   1286.8750   249.7982 
838   1287.5000   243.6157 
839   1288.1250   238.1850 
840   1288.7500   240.0069 
841   1289.3750   244.8551 
842   1290.0000   247.4721 
843   1290.6250   247.9863 
844   1291.2500   248.1909 
845   1291.8750   246.9439 
846   1292.5000   244.2517 
847   1293.1250   244.8913 
848   1293.7500   244.4902 
849   1294.3750   240.7964 
850   1295.0000   240.3649 
851   1295.6250   242.5701 
852   1296.2500   244.8286 
853   1296.8750   242.6996 
854   1297.5000   237.7890 
855   1298.1250   240.3689 
856   1298.7500   245.0399 
857   1299.3750   241.1043 
858   1300.0000   237.3312 
859   1300.6250   240.6723 
860   1301.2500   236.9528 
861   1301.8750   232.4197 
862   1302.5000   233.4784 
863   1303.1250   227.6978 
864   1303.7500   223.3326 
865   1304.3750   221.4855 
866   1305.0000   217.5863 
867   1305.6250   213.8188 
868   1306.2500   225.7733 
869   1306.8750   243.4092 
870   1307.5000   249.1950 
871   1308.1250   248.0572 
872   1308.7500   249.9003 
873   1309.3750   251.6424 
874   1310.0000   251.9267 
875   1310.6250   250.8606 
876   1311.2500   247.8504 
877   1311.8750   247.7484 
878   1312.5000   248.0779 
879   1313.1250   247.1159 
880   1313.7500   248.4607 
881   1314.3750   252.1863 
882   1315.0000   253.4658 
883   1315.6250   254.5446 
884   1316.2500   251.3994 
885   1316.8750   246.1673 
886   1317.5000   251.2760 
887   1318.1250   252.5150 
888   1318.7500   245.0241 
889   1319.3750   244.6446 
890   1320.0000   247.5875 
891   1320.6250   251.8374 
892   1321.2500   253.3457 
893   1321.8750   247.6943 
894   1322.5000   249.1406 
895   1323.1250   253.8784 
896   1323.7500   254.2104 
897   1324.3750   254.3540 
898   1325.0000   254.6344 
899   1325.6250   254.4809 
900   1326.2500   252.3942 
901   1326.8750   242.1938 
902   1327.5000   240.5271 
903   1328.1250   251.4204 
904   1328.7500   254.2646 
905   1329.3750   254.5355 
906   1330.0000   254.3758 
907   1330.6250   254.9485 
908   1331.2500   253.2274 
909   1331.8750   244.2229 
910   1332.5000   234.6864 
911   1333.1250   245.9616 
912   1333.7500   253.6491 
913   1334.3750   255.0279 
914   1335.0000   255.3110 
915   1335.6250   255.4395 
916   1336.2500   249.2077 
917   1336.8750   238.4535 
918   1337.5000   236.5556 
919   1338.1250   238.3778 
920   1338.7500   239.2947 
921   1339.3750   239.7997 
922   1340.0000   236.6499 
923   1340.6250   240.0216 
924   1341.2500   243.4152 
925   1341.8750   239.2451 
926   1342.5000   239.4693 
927   1343.1250   245.8355 
928   1343.7500   253.7901 
929   1344.3750   255.1541 
930   1345.0000   255.3639 
931   1345.6250   253.7566 
932   1346.2500   246.3961 
933   1346.8750   241.9383 
934   1347.5000   246.3404 
935   1348.1250   248.8047 
936   1348.7500   250.3138 
937   1349.3750   246.9476 
938   1350.0000   251.6302 
939   1350.6250   251.0031 
940   1351.2500   247.3533 
941   1351.8750   250.3782 
942   1352.5000   251.7997 
943   1353.1250   249.2909 
944   1353.7500   253.3482 
945   1354.3750   251.1803 
946   1355.0000   243.7255 
947   1355.6250   243.9895 
948   1356.2500   248.3508 
949   1356.8750   252.6362 
950   1357.5000   253.8161 
951   1358.1250   251.3202 
952   1358.7500   254.1311 
953   1359.3750   254.5931 
954   1360.0000   251.0859 
955   1360.6250   244.3438 
956   1361.2500   242.3715 
957   1361.8750   245.7556 
958   1362.5000   237.1061 
959   1363.1250   230.6763 
960   1363.7500   242.9228 
961   1364.3750   251.8196 
962   1365.0000   254.9049 
963   1365.6250   254.4243 
964   1366.2500   254.3206 
965   1366.8750   256.2029 
966   1367.5000   255.4023 
967   1368.1250   246.8119 
968   1368.7500   241.7309 
969   1369.3750   250.0770 
970   1370.0000   255.0846 
971   1370.6250   255.6907 
972   1371.2500   255.7486 
973   1371.8750   254.1555 
974   1372.5000   250.4018 
975   1373.1250   242.4767 
976   1373.7500   233.0790 
977   1374.3750   233.2541 
978   1375.0000   232.3700 
979   1375.6250   241.9433 
980   1376.2500   252.7756 
981   1376.8750   255.7014 
982   1377.5000   254.0254 
983   1378.1250   250.7339 
984   1378.7500   252.2439 
985   1379.3750   251.0165 
986   1380.0000   250.3572 
987   1380.6250   254.7182 
988   1381.2500   256.3766 
989   1381.8750   256.2961 
990   1382.5000   256.0278 
991   1383.1250   255.4270 
992   1383.7500   255.7122 
993   1384.3750   256.7630 
994   1385.0000   256.5689 
995   1385.6250   253.8500 
996   1386.2500   245.0051 
997   1386.8750   235.7554 
998   1387.5000   231.8756 
999   1388.1250   240.6535 
1000   1388.7500   251.1592 
1001   1389.3750   254.8010 
1002   1390.0000   253.3289 
1003   1390.6250   251.2640 
1004   1391.2500   253.4612 
1005   1391.8750   255.4793 
1006   1392.5000   254.7962 
1007   1393.1250   250.7169 
1008   1393.7500   240.3309 
1009   1394.3750   229.0002 
1010   1395.0000   230.2108 
1011   1395.6250   232.2672 
1012   1396.2500   239.7714 
1013   1396.8750   247.1950 
1014   1397.5000   243.4913 
1015   1398.1250   238.7269 
1016   1398.7500   231.8259 
1017   1399.3750   228.4865 
1018   1400.0000   240.3555 
1019   1400.6250   249.8190 
1020   1401.2500   254.3863 
1021   1401.8750   255.7712 
1022   1402.5000   255.7390 
1023   1403.1250   254.3707 
1024   1403.7500   251.1298 
1025   1404.3750   241.6399 
1026   1405.0000   232.9271 
1027   1405.6250   242.5790 
1028   1406.2500   252.7054 
1029   1406.8750   255.8591 
1030   1407.5000   256.5097 
1031   1408.1250   256.4289 
1032   1408.7500   256.4700 
1033   1409.3750   254.5922 
1034   1410.0000   252.1953 
1035   1410.6250   254.0985 
1036   1411.2500   250.4583 
1037   1411.8750   245.1382 
1038   1412.5000   251.5854 
1039   1413.1250   256.0402 
1040   1413.7500   255.9203 
1041   1414.3750   253.7993 
1042   1415.0000   251.9574 
1043   1415.6250   249.1774 
1044   1416.2500   245.4884 
1045   1416.8750   241.7440 
1046   1417.5000   235.5152 
1047   1418.1250   234.1084 
1048   1418.7500   225.6207 
1049   1419.3750   218.4315 
1050   1420.0000   228.1072 
1051   1420.6250   239.7457 
1052   1421.2500   246.3086 
1053   1421.8750   249.3660 
1054   1422.5000   248.2860 
1055   1423.1250   239.6506 
1056   1423.7500   228.9241 
1057   1424.3750   236.2320 
1058   1425.0000   248.2323 
1059   1425.6250   252.9546 
1060   1426.2500   254.1422 
1061   1426.8750   254.6160 
1062   1427.5000   253.1891 
1063   1428.1250   248.7280 
1064   1428.7500   245.0008 
1065   1429.3750   236.5516 
1066   1430.0000   228.8266 
1067   1430.6250   238.5069 
1068   1431.2500   246.2420 
1069   1431.8750   247.0482 
1070   1432.5000   247.4810 
1071   1433.1250   243.3691 
1072   1433.7500   242.7532 
1073   1434.3750   246.2350 
1074   1435.0000   242.6402 
1075   1435.6250   233.9596 
1076   1436.2500   223.3661 
1077   1436.8750   219.1943 
1078   1437.5000   229.2361 
1079   1438.1250   240.1743 
1080   1438.7500   246.8367 
1081   1439.3750   250.5960 
1082   1440.0000   252.4091 
1083   1440.6250   253.4401 
1084   1441.2500   253.7053 
1085   1441.8750   254.5809 
1086   1442.5000   254.2292 
1087   1443.1250   254.2921 
1088   1443.7500   254.9476 
1089   1444.3750   254.5431 
1090   1445.0000   252.8418 
1091   1445.6250   250.9487 
1092   1446.2500   245.3797 
1093   1446.8750   240.2282 
1094   1447.5000   232.9445 
1095   1448.1250   229.1923 
1096   1448.7500   239.6162 
1097   1449.3750   247.5003 
1098   1450.0000   250.1377 
1099   1450.6250   249.4666 
1100   1451.2500   246.8016 
1101   1451.8750   240.0174 
1102   1452.5000   241.4877 
1103   1453.1250   244.8413 
1104   1453.7500   242.3889 
1105   1454.3750   236.2940 
1106   1455.0000   229.2339 
1107   1455.6250   225.7019 
1108   1456.2500   220.2197 
1109   1456.8750   214.7147 
1110   1457.5000   218.1719 
1111   1458.1250   219.1783 
1112   1458.7500   220.6095 
1113   1459.3750   226.0302 
1114   1460.0000   235.7568 
1115   1460.6250   242.3119 
1116   1461.2500   245.0412 
1117   1461.8750   245.6998 
1118   1462.5000   244.7548 
1119   1463.1250   241.9920 
1120   1463.7500   235.8670 
1121   1464.3750   225.4182 
1122   1465.0000   219.5664 
1123   1465.6250   228.5408 
1124   1466.2500   236.9929 
1125   1466.8750   241.3178 
1126   1467.5000   243.8982 
1127   1468.1250   246.2070 
1128   1468.7500   246.8442 
1129   1469.3750   244.6954 
1130   1470.0000   241.4129 
1131   1470.6250   236.5779 
1132   1471.2500   227.8438 
1133   1471.8750   218.2483 
1134   1472.5000   219.8935 
1135   1473.1250   220.8601 
1136   1473.7500   222.4854 
1137   1474.3750   231.0232 
1138   1475.0000   235.7133 
1139   1475.6250   231.0802 
1140   1476.2500   224.7910 
1141   1476.8750   233.7671 
1142   1477.5000   243.5462 
1143   1478.1250   247.9875 
1144   1478.7500   249.8350 
1145   1479.3750   250.2574 
1146   1480.0000   248.4667 
1147   1480.6250   241.9419 
1148   1481.2500   234.6662 
1149   1481.8750   240.1331 
1150   1482.5000   247.7091 
1151   1483.1250   249.8142 
1152   1483.7500   248.7186 
1153   1484.3750   247.2189 
1154   1485.0000   245.8413 
1155   1485.6250   242.1717 
1156   1486.2500   235.0755 
1157   1486.8750   226.2613 
1158   1487.5000   222.9689 
1159   1488.1250   230.2557 
1160   1488.7500   230.7101 
1161   1489.3750   224.1827 
1162   1490.0000   221.3200 
1163   1490.6250   221.1306 
1164   1491.2500   227.5682 
1165   1491.8750   237.1508 
1166   1492.5000   241.1983 
1167   1493.1250   241.6033 
1168   1493.7500   241.6644 
1169   1494.3750   239.8241 
1170   1495.0000   234.4905 
1171   1495.6250   225.4899 
1172   1496.2500   218.3079 
1173   1496.8750   224.5977 
1174   1497.5000   230.0707 
1175   1498.1250   226.6533 
1176   1498.7500   220.4210 
1177   1499.3750   225.7844 
1178   1500.0000   232.2639 
1179   1500.6250   234.7406 
1180   1501.2500   234.0065 
1181   1501.8750   233.3267 
1182   1502.5000   236.0416 
1183   1503.1250   236.2482 
1184   1503.7500   233.3454 
1185   1504.3750   228.1149 
1186   1505.0000   219.9040 
1187   1505.6250   212.7317 
1188   1506.2500   212.7000 
1189   1506.8750   211.7275 
1190   1507.5000   215.4057 
1191   1508.1250   219.0268 
1192   1508.7500   222.0141 
1193   1509.3750   224.9651 
1194   1510.0000   227.3891 
1195   1510.6250   232.0344 
1196   1511.2500   234.2272 
1197   1511.8750   229.6652 
1198   1512.5000   227.8105 
1199   1513.1250   235.5034 
1200   1513.7500   238.8770 
1201   1514.3750   235.1415 
1202   1515.0000   229.1251 
1203   1515.6250   228.4640 
1204   1516.2500   223.9429 
1205   1516.8750   217.7326 
1206   1517.5000   217.3863 
1207   1518.1250   225.9314 
1208   1518.7500   231.8006 
1209   1519.3750   229.8157 
1210   1520.0000   222.8842 
1211   1520.6250   217.7582 
1212   1521.2500   215.8402 
1213   1521.8750   217.3964 
1214   1522.5000   216.9062 
1215   1523.1250   220.5197 
1216   1523.7500   227.4549 
1217   1524.3750   228.3454 
1218   1525.0000   222.4348 
1219   1525.6250   221.0768 
1220   1526.2500   228.3042 
1221   1526.8750   229.1871 
1222   1527.5000   227.2458 
1223   1528.1250   226.4109 
1224   1528.7500   226.8526 
1225   1529.3750   234.9219 
1226   1530.0000   239.2894 
1227   1530.6250   238.6955 
1228   1531.2500   233.6412 
1229   1531.8750   229.7899 
1230   1532.5000   226.7777 
1231   1533.1250   218.7012 
1232   1533.7500   215.7102 
1233   1534.3750   223.2500 
1234   1535.0000   229.4294 
1235   1535.6250   231.0838 
1236   1536.2500   231.6536 
1237   1536.8750   230.3675 
1238   1537.5000   226.9065 
1239   1538.1250   219.1971 
1240   1538.7500   211.8512 
1241   1539.3750   210.3859 
1242   1540.0000   211.0900 
1243   1540.6250   214.0142 
1244   1541.2500   217.2165 
1245   1541.8750   214.4948 
1246   1542.5000   216.5904 
1247   1543.1250   221.1722 
1248   1543.7500   224.5921 
1249   1544.3750   225.3643 
1250   1545.0000   221.0246 
1251   1545.6250   224.6349 
1252   1546.2500   233.2336 
1253   1546.8750   237.6869 
1254   1547.5000   238.7901 
1255   1548.1250   238.2261 
1256   1548.7500   236.4847 
1257   1549.3750   229.6694 
1258   1550.0000   224.5918 
1259   1550.6250   230.1732 
1260   1551.2500   234.9015 
1261   1551.8750   234.3562 
1262   1552.5000   233.8815 
1263   1553.1250   231.7484 
1264   1553.7500   224.4813 
1265   1554.3750   218.3208 
1266   1555.0000   223.5664 
1267   1555.6250   227.8437 
1268   1556.2500   226.7139 
1269   1556.8750   221.1525 
1270   1557.5000   213.5905 
1271   1558.1250   210.2509 
1272   1558.7500   211.3763 
1273   1559.3750   212.1013 
1274   1560.0000   210.6047 
1275   1560.6250   215.6136 
1276   1561.2500   224.2538 
1277   1561.8750   229.9211 
1278   1562.5000   233.0339 
1279   1563.1250   233.8134 
1280   1563.7500   232.0705 
1281   1564.3750   225.9709 
1282   1565.0000   222.3036 
1283   1565.6250   229.6354 
1284   1566.2500   235.2463 
1285   1566.8750   237.2994 
1286   1567.5000   236.2671 
1287   1568.1250   231.4834 
1288   1568.7500   222.3551 
1289   1569.3750   214.8413 
1290   1570.0000   216.9146 
1291   1570.6250   226.4706 
1292   1571.2500   233.3456 
1293   1571.8750   236.4785 
1294   1572.5000   236.4577 
1295   1573.1250   235.2256 
1296   1573.7500   234.2041 
1297   1574.3750   231.0508 
1298   1575.0000   225.2245 
1299   1575.6250   216.4394 
1300   1576.2500   211.6398 
1301   1576.8750   217.4358 
1302   1577.5000   224.7360 
1303   1578.1250   231.0913 
1304   1578.7500   236.3292 
1305   1579.3750   239.9496 
1306   1580.0000   242.6920 
1307   1580.6250   244.6422 
1308   1581.2500   246.0352 
1309   1581.8750   246.2196 
1310   1582.5000   245.9909 
1311   1583.1250   247.2219 
1312   1583.7500   248.6797 
1313   1584.3750   249.5948 
1314   1585.0000   250.0148 
1315   1585.6250   250.2073 
1316   1586.2500   250.3855 
1317   1586.8750   250.3761 
1318   1587.5000   250.3840 
1319   1588.1250   250.6182 
1320   1588.7500   249.6410 
1321   1589.3750   244.2719 
1322   1590.0000   241.3949 
1323   1590.6250   246.1978 
1324   1591.2500   244.9166 
1325   1591.8750   243.2873 
1326   1592.5000   248.1018 
1327   1593.1250   249.3348 
1328   1593.7500   244.2715 
1329   1594.3750   235.7952 
1330   1595.0000   239.9535 
1331   1595.6250   243.4554 
1332   1596.2500   240.9583 
1333   1596.8750   246.1619 
1334   1597.5000   250.4487 
1335   1598.1250   251.1557 
1336   1598.7500   251.1630 
1337   1599.3750   251.0295 
1338   1600.0000   250.1296 
1339   1600.6250   244.6375 
1340   1601.2500   238.9733 
1341   1601.8750   243.6387 
1342   1602.5000   242.1636 
1343   1603.1250   234.1651 
1344   1603.7500   239.8562 
1345   1604.3750   247.8382 
1346   1605.0000   249.9031 
1347   1605.6250   249.1800 
1348   1606.2500   243.8305 
1349   1606.8750   233.6773 
1350   1607.5000   235.9688 
1351   1608.1250   243.1764 
1352   1608.7500   239.4338 
1353   1609.3750   230.2499 
1354   1610.0000   234.8823 
1355   1610.6250   243.6725 
1356   1611.2500   246.1399 
1357   1611.8750   245.7487 
1358   1612.5000   243.9980 
1359   1613.1250   241.8241 
1360   1613.7500   239.7938 
1361   1614.3750   236.6967 
1362   1615.0000   231.8361 
1363   1615.6250   225.1064 
1364   1616.2500   215.7783 
1365   1616.8750   212.6741 
1366   1617.5000   220.6314 
1367   1618.1250   228.8099 
1368   1618.7500   233.8060 
1369   1619.3750   236.8961 
1370   1620.0000   237.8493 
1371   1620.6250   236.5916 
1372   1621.2500   235.7010 
1373   1621.8750   233.1017 
1374   1622.5000   225.8145 
1375   1623.1250   218.3552 
1376   1623.7500   218.1656 
1377   1624.3750   227.4163 
1378   1625.0000   233.9684 
1379   1625.6250   236.7088 
1380   1626.2500   237.2311 
1381   1626.8750   233.1311 
1382   1627.5000   223.6098 
1383   1628.1250   222.9461 
1384   1628.7500   231.5497 
1385   1629.3750   238.2502 
1386   1630.0000   242.2318 
1387   1630.6250   243.1277 
1388   1631.2500   242.1447 
1389   1631.8750   239.9740 
1390   1632.5000   238.2799 
1391   1633.1250   235.7498 
1392   1633.7500   230.9075 
1393   1634.3750   222.7270 
1394   1635.0000   212.9823 
1395   1635.6250   211.4815 
1396   1636.2500   218.8674 
1397   1636.8750   222.1871 
1398   1637.5000   220.3242 
1399   1638.1250   225.9251 
1400   1638.7500   234.1720 
1401   1639.3750   237.7194 
1402   1640.0000   235.1317 
1403   1640.6250   235.9404 
1404   1641.2500   240.3667 
1405   1641.8750   238.3320 
1406   1642.5000   235.8999 
1407   1643.1250   238.0249 
1408   1643.7500   237.3907 
1409   1644.3750   233.6105 
1410   1645.0000   227.2961 
1411   1645.6250   218.0718 
1412   1646.2500   215.8533 
1413   1646.8750   218.8483 
1414   1647.5000   217.5908 
1415   1648.1250   217.5963 
1416   1648.7500   223.2749 
1417   1649.3750   229.1454 
1418   1650.0000   230.5871 
1419   1650.6250   229.0350 
1420   1651.2500   224.2406 
1421   1651.8750   216.5340 
1422   1652.5000   209.7322 
1423   1653.1250   209.5269 
1424   1653.7500   212.0816 
1425   1654.3750   215.0972 
1426   1655.0000   221.8849 
1427   1655.6250   228.9266 
1428   1656.2500   231.9602 
1429   1656.8750   233.8333 
1430   1657.5000   237.2483 
1431   1658.1250   240.2855 
1432   1658.7500   241.2689 
1433   1659.3750   241.9830 
1434   1660.0000   241.6129 
1435   1660.6250   239.0020 
1436   1661.2500   233.3816 
1437   1661.8750   227.8245 
1438   1662.5000   220.1121 
1439   1663.1250   220.6164 
1440   1663.7500   230.2572 
1441   1664.3750   237.0194 
1442   1665.0000   240.2205 
1443   1665.6250   241.2208 
1444   1666.2500   241.0551 
1445   1666.8750   239.4814 
1446   1667.5000   235.0583 
1447   1668.1250   226.9675 
1448   1668.7500   218.9362 
1449   1669.3750   215.9376 
1450   1670.0000   222.6212 
1451   1670.6250   226.7360 
1452   1671.2500   222.7907 
1453   1671.8750   224.3259 
1454   1672.5000   231.3190 
1455   1673.1250   235.2225 
1456   1673.7500   234.0011 
1457   1674.3750   227.4992 
1458   1675.0000   217.6136 
1459   1675.6250   218.3237 
1460   1676.2500   228.6901 
1461   1676.8750   235.0706 
1462   1677.5000   236.6815 
1463   1678.1250   238.7042 
1464   1678.7500   239.1402 
1465   1679.3750   233.2225 
1466   1680.0000   227.0543 
1467   1680.6250   228.5798 
1468   1681.2500   233.0137 
1469   1681.8750   232.4291 
1470   1682.5000   226.2925 
1471   1683.1250   218.2606 
1472   1683.7500   214.4132 
1473   1684.3750   211.8434 
1474   1685.0000   212.7620 
1475   1685.6250   221.1316 
1476   1686.2500   228.6901 
1477   1686.8750   232.8518 
1478   1687.5000   232.9692 
1479   1688.1250   229.5007 
1480   1688.7500   230.6309 
1481   1689.3750   231.5098 
1482   1690.0000   228.0157 
1483   1690.6250   232.5208 
1484   1691.2500   238.8227 
1485   1691.8750   238.4760 
1486   1692.5000   237.1557 
1487   1693.1250   237.0007 
1488   1693.7500   234.1697 
1489   1694.3750   229.6729 
1490   1695.0000   221.7943 
1491   1695.6250   213.2163 
1492   1696.2500   215.6818 
1493   1696.8750   221.9314 
1494   1697.5000   224.0391 
1495   1698.1250   226.5161 
1496   1698.7500   224.7512 
1497   1699.3750   217.2713 
1498   1700.0000   210.3905 
1499   1700.6250   210.6290 
1500   1701.2500   218.2692 
1501   1701.8750   226.9445 
1502   1702.5000   231.0770 
1503   1703.1250   232.5571 
1504   1703.7500   229.4550 
1505   1704.3750   223.3913 
1506   1705.0000   225.9355 
1507   1705.6250   226.1251 
1508   1706.2500   219.7344 
1509   1706.8750   222.7705 
1510   1707.5000   231.9832 
1511   1708.1250   239.0155 
1512   1708.7500   242.2156 
1513   1709.3750   240.3392 
1514   1710.0000   232.9877 
1515   1710.6250   235.0096 
1516   1711.2500   242.1694 
1517   1711.8750   243.7018 
1518   1712.5000   240.8457 
1519   1713.1250   236.2715 
1520   1713.7500   230.0057 
1521   1714.3750   224.9741 
1522   1715.0000   222.4693 
1523   1715.6250   225.1498 
1524   1716.2500   228.1795 
1525   1716.8750   222.5178 
1526   1717.5000   216.7258 
1527   1718.1250   216.6829 
1528   1718.7500   219.3308 
1529   1719.3750   228.7581 
1530   1720.0000   237.2176 
1531   1720.6250   241.6988 
1532   1721.2500   242.8325 
1533   1721.8750   244.6486 
1534   1722.5000   245.3013 
1535   1723.1250   239.2332 
1536   1723.7500   238.3743 
1537   1724.3750   246.1836 
1538   1725.0000   250.2540 
1539   1725.6250   250.2960 
1540   1726.2500   246.7962 
1541   1726.8750   245.2844 
1542   1727.5000   247.9071 
1543   1728.1250   248.8672 
1544   1728.7500   246.0459 
1545   1729.3750   236.8375 
1546   1730.0000   227.0171 
1547   1730.6250   232.9801 
1548   1731.2500   238.5706 
1549   1731.8750   234.7393 
1550   1732.5000   228.9586 
1551   1733.1250   222.3542 
1552   1733.7500   217.7112 
1553   1734.3750   215.5948 
1554   1735.0000   219.6345 
1555   1735.6250   229.1808 
1556   1736.2500   235.7037 
1557   1736.8750   237.5737 
1558   1737.5000   235.3068 
1559   1738.1250   235.0140 
1560   1738.7500   232.1588 
1561   1739.3750   222.5275 
1562   1740.0000   218.9051 
1563   1740.6250   228.4771 
1564   1741.2500   237.1903 
1565   1741.8750   240.4611 
1566   1742.5000   236.3505 
1567   1743.1250   228.0630 
1568   1743.7500   230.1551 
1569   1744.3750   236.1016 
1570   1745.0000   239.2916 
1571   1745.6250   236.0789 
1572   1746.2500   232.5153 
1573   1746.8750   229.5575 
1574   1747.5000   226.8701 
1575   1748.1250   226.0298 
1576   1748.7500   223.1924 
1577   1749.3750   228.5750 
1578   1750.0000   234.4391 
2224   1750.6250   230.8530 
2225   1751.2500   223.9518 
2226   1751.8750   231.7094 
2227   1752.5000   237.7884 
2228   2152.5000   255.0065 
2229   2153.1250   254.6912 
2230   2153.7500   254.1849 
2231   2154.3750   253.0117 
1579   2155.0000   253.3359 
1580   2155.6250   254.3841 
1581   2156.2500   254.7169 
1582   2156.8750   254.7281 
1583   2157.5000   254.0594 
1584   2158.1250   252.7398 
1585   2158.7500   253.2316 
1586   2159.3750   254.3350 
1587   2160.0000   254.4093 
1588   2160.6250   254.5140 
1589   2161.2500   253.8636 
1590   2161.8750   252.6200 
1591   2162.5000   253.5262 
1592   2163.1250   254.7797 
1593   2163.7500   254.6309 
1594   2164.3750   254.4206 
1595   2165.0000   253.4572 
1596   2165.6250   252.4326 
1597   2166.2500   253.5606 
1598   2166.8750   254.3969 
1599   2167.5000   254.3834 
1600   2168.1250   254.2892 
1601   2168.7500   253.0564 
1602   2169.3750   252.5213 
1603   2170.0000   253.8936 
1604   2170.6250   254.4599 
1605   2171.2500   254.5905 
1606   2171.8750   254.1692 
1607   2172.5000   252.6847 
1608   2173.1250   252.8334 
1609   2173.7500   254.1242 
1610   2174.3750   254.2638 
1611   2175.0000   254.2830 
1612   2175.6250   253.4904 
1613   2176.2500   252.3583 
1614   2176.8750   253.2514 
1615   2177.5000   254.0750 
1616   2178.1250   253.9594 
1617   2178.7500   253.8196 
1618   2179.3750   252.5941 
1619   2180.0000   252.2025 
1620   2180.6250   253.3270 
1621   2181.2500   253.5423 
1622   2181.8750   253.3516 
1623   2182.5000   252.6875 
1624   2183.1250   251.5087 
1625   2183.7500   251.9906 
1626   2184.3750   252.7781 
1627   2185.0000   252.7663 
1628   2185.6250   252.4275 
1629   2186.2500   251.1309 
1630   2186.8750   250.6879 
1631   2187.5000   251.5637 
1632   2188.1250   251.5685 
1633   2188.7500   251.3231 
1634   2189.3750   250.5036 
1635   2190.0000   249.4969 
1636   2190.6250   250.1639 
1637   2191.2500   251.0837 
1638   2191.8750   250.9000 
1639   2192.5000   250.3524 
1640   2193.1250   249.2167 
1641   2193.7500   248.9259 
1642   2194.3750   249.0431 
1643   2195.0000   248.8195 
1644   2195.6250   248.5625 
1645   2196.2500   248.3159 
1646   2196.8750   247.9777 
1647   2197.5000   247.8415 
1648   2198.1250   247.5814 
1649   2198.7500   247.3145 
1650   2199.3750   247.0048 
1651   2200.0000   246.9296 
1652   2200.6250   247.3170 
1653   2201.2500   247.4879 
1654   2201.8750   247.1830 
1655   2202.5000   246.2347 
1656   2203.1250   244.8054 
1657   2203.7500   244.8221 
1658   2204.3750   244.8185 
1659   2205.0000   244.5866 
1660   2205.6250   244.1762 
1661   2206.2500   243.6470 
1662   2206.8750   243.7505 
1663   2207.5000   244.0934 
1664   2208.1250   244.1634 
1665   2208.7500   243.9568 
1666   2209.3750   243.4784 
1667   2210.0000   243.3504 
1668   2210.6250   243.1114 
1669   2211.2500   242.7187 
1670   2211.8750   242.1902 
1671   2212.5000   241.5218 
1672   2213.1250   241.1171 
1673   2213.7500   241.1655 
1674   2214.3750   241.3033 
1675   2215.0000   241.7688 
1676   2215.6250   242.1548 
1677   2216.2500   242.4971 
1678   2216.8750   242.2857 
1679   2217.5000   241.8221 
1680   2218.1250   241.5356 
1681   2218.7500   241.6160 
1682   2219.3750   242.1355 
1683   2220.0000   243.0641 
1684   2220.6250   244.3775 
1685   2221.2500   245.8051 
1686   2221.8750   246.8318 
1687   2222.5000   247.6824 
1688   2223.1250   249.3852 
1689   2223.7500   250.8542 
1690   2224.3750   249.0559 
1691   2225.0000   247.0362 
1692   2225.6250   246.0794 
1693   2226.2500   245.3111 
1694   2226.8750   243.8279 
1695   2227.5000   242.1769 
1696   2228.1250   240.3821 
1697   2228.7500   239.4359 
1698   2229.3750   239.3628 
1699   2230.0000   239.0279 
1700   2230.6250   237.4223 
1701   2231.2500   237.1028 
1702   2231.8750   237.2314 
1703   2232.5000   234.7541 
1704   2233.1250   233.9054 
1705   2233.7500   236.5220 
1706   2234.3750   235.6512 
1707   2235.0000   231.5756 
1708   2235.6250   232.0544 
1709   2236.2500   235.3876 
1710   2236.8750   233.7382 
1711   2237.5000   230.9403 
1712   2238.1250   234.0389 
1713   2238.7500   233.4700 
1714   2239.3750   230.0377 
1715   2240.0000   233.9982 
1716   2240.6250   235.1103 
1717   2241.2500   230.6612 
1718   2241.8750   233.3340 
1719   2242.5000   236.0956 
1720   2243.1250   231.0368 
1721   2243.7500   230.8902 
1722   2244.3750   235.2694 
1723   2245.0000   234.3476 
1724   2245.6250   232.2375 
1725   2246.2500   235.3951 
1726   2246.8750   236.2928 
1727   2247.5000   232.8208 
1728   2248.1250   232.7712 
1729   2248.7500   235.9951 
1730   2249.3750   231.2292 
1731   2250.0000   229.4200 
1732   2250.6250   234.3828 
1733   2251.2500   230.0180 
1734   2251.8750   224.8621 
1735   2252.5000   231.0059 
1736   2253.1250   228.8008 
1737   2253.7500   223.2301 
1738   2254.3750   228.8755 
1739   2255.0000   227.0385 
1740   2255.6250   221.3066 
1741   2256.2500   228.1429 
1742   2256.8750   226.0920 
1743   2257.5000   220.8633 
1744   2258.1250   223.0888 
1745   2258.7500   222.3911 
1746   2259.3750   218.1154 
1747   2260.0000   219.4939 
1748   2260.6250   219.7155 
1749   2261.2500   216.7816 
1750   2261.8750   217.4247 
1751   2262.5000   218.6694 
1752   2263.1250   215.8976 
1753   2263.7500   217.4143 
1754   2264.3750   217.5144 
1755   2265.0000   215.4360 
1756   2265.6250   216.2832 
1757   2266.2500   215.5185 
1758   2266.8750   214.3699 
1759   2267.5000   214.2869 
1760   2268.1250   213.8923 
1761   2268.7500   214.0562 
1762   2269.3750   212.8236 
1763   2270.0000   213.7692 
1764   2270.6250   213.0696 
1765   2271.2500   213.9187 
1766   2271.8750   215.1789 
1767   2272.5000   213.6003 
1768   2273.1250   212.7589 
1769   2273.7500   214.0653 
1770   2274.3750   213.3690 
1771   2275.0000   214.5956 
1772   2275.6250   214.9465 
1773   2276.2500   213.6504 
1774   2276.8750   214.1402 
1775   2277.5000   214.5857 
1776   2278.1250   214.7279 
1777   2278.7500   215.9195 
1778   2279.3750   216.1565 
1779   2280.0000   217.0594 
1780   2280.6250   217.8394 
1781   2281.2500   218.5312 
1782   2281.8750   218.8080 
1783   2282.5000   222.3714 
1784   2283.1250   225.1402 
1785   2283.7500   223.9536 
1786   2284.3750   220.6118 
1787   2285.0000   220.2728 
1788   2285.6250   219.0528 
1789   2286.2500   218.2867 
1790   2286.8750   219.1700 
1791   2287.5000   218.3600 
1792   2288.1250   216.3202 
1793   2288.7500   218.4484 
1794   2289.3750   218.7706 
1795   2290.0000   218.8591 
1796   2290.6250   218.1450 
1797   2291.2500   219.7052 
1798   2291.8750   220.3508 
1799   2292.5000   218.3938 
1800   2293.1250   219.8613 
1801   2293.7500   220.4341 
1802   2294.3750   220.6832 
1803   2295.0000   219.2026 
1804   2295.6250   221.2897 
1805   2296.2500   221.3925 
1806   2296.8750   219.8228 
1807   2297.5000   220.1498 
1808   2298.1250   221.5233 
1809   2298.7500   221.1003 
1810   2299.3750   220.0134 
1811   2300.0000   221.4834 
1812   2300.6250   221.5855 
1813   2301.2500   220.8529 
1814   2301.8750   221.0506 
1815   2302.5000   223.4812 
1816   2303.1250   222.2049 
1817   2303.7500   221.1129 
1818   2304.3750   222.9137 
1819   2305.0000   223.6342 
1820   2305.6250   220.4271 
1821   2306.2500   221.7492 
1822   2306.8750   224.3523 
1823   2307.5000   223.1632 
1824   2308.1250   222.1697 
1825   2308.7500   225.6374 
1826   2309.3750   225.1880 
1827   2310.0000   222.5311 
1828   2310.6250   224.8440 
1829   2311.2500   227.2602 
1830   2311.8750   223.6889 
1831   2312.5000   224.6488 
1832   2313.1250   228.6806 
1833   2313.7500   226.2340 
1834   2314.3750   224.3312 
1835   2315.0000   229.0191 
1836   2315.6250   227.4046 
1837   2316.2500   224.2248 
1838   2316.8750   228.2353 
1839   2317.5000   229.2011 
1840   2318.1250   224.6873 
1841   2318.7500   229.9229 
1842   2319.3750   231.8111 
1843   2320.0000   226.5359 
1844   2320.6250   229.5043 
1845   2321.2500   233.1237 
1846   2321.8750   227.3421 
1847   2322.5000   230.1869 
1848   2323.1250   235.0959 
1849   2323.7500   231.7253 
1850   2324.3750   231.8446 
1851   2325.0000   234.9635 
1852   2325.6250   229.1609 
1853   2326.2500   229.3081 
1854   2326.8750   233.5784 
1855   2327.5000   230.0665 
1856   2328.1250   231.6990 
1857   2328.7500   236.7453 
1858   2329.3750   231.1861 
1859   2330.0000   232.9696 
1860   2330.6250   237.0158 
1861   2331.2500   231.9917 
1862   2331.8750   233.9008 
1863   2332.5000   237.4335 
1864   2333.1250   231.7825 
1865   2333.7500   235.6610 
1866   2334.3750   237.3872 
1867   2335.0000   232.7049 
1868   2335.6250   238.1881 
1869   2336.2500   239.6995 
1870   2336.8750   234.3256 
1871   2337.5000   237.4229 
1872   2338.1250   234.4430 
1873   2338.7500   233.4665 
1874   2339.3750   238.2426 
1875   2340.0000   233.4120 
1876   2340.6250   234.6681 
1877   2341.2500   237.1204 
1878   2341.8750   232.2046 
1879   2342.5000   236.6509 
1880   2343.1250   235.1075 
1881   2343.7500   233.2511 
1882   2344.3750   237.0454 
1883   2345.0000   233.4353 
1884   2345.6250   234.3464 
1885   2346.2500   234.6862 
1886   2346.8750   230.5647 
1887   2347.5000   233.4357 
1888   2348.1250   229.6120 
1889   2348.7500   225.9796 
1890   2349.3750   228.8279 
1891   2350.0000   231.6440 
1892   2350.6250   229.6808 
1893   2351.2500   234.1449 
1894   2351.8750   232.7748 
1895   2352.5000   233.2227 
1896   2353.1250   234.9229 
1897   2353.7500   233.4250 
1898   2354.3750   237.2231 
1899   2355.0000   234.8555 
1900   2355.6250   236.5298 
1901   2356.2500   236.2943 
1902   2356.8750   235.1966 
1903   2357.5000   237.3282 
1904   2358.1250   234.8411 
1905   2358.7500   238.0248 
1906   2359.3750   234.5392 
1907   2360.0000   237.0133 
1908   2360.6250   234.5964 
1909   2361.2500   237.1465 
1910   2361.8750   235.4035 
1911   2362.5000   235.7397 
1912   2363.1250   234.9290 
1913   2363.7500   235.3743 
1914   2364.3750   235.4064 
1915   2365.0000   234.3186 
1916   2365.6250   234.3279 
1917   2366.2500   233.6821 
1918   2366.8750   234.0326 
1919   2367.5000   232.3186 
1920   2368.1250   232.4429 
1921   2368.7500   231.7600 
1922   2369.3750   231.9940 
1923   2370.0000   230.5833 
1924   2370.6250   230.5097 
1925   2371.2500   228.8713 
1926   2371.8750   228.6928 
1927   2372.5000   227.4635 
1928   2373.1250   227.0602 
1929   2373.7500   225.5578 
1930   2374.3750   224.9875 
1931   2375.0000   223.3603 
1932   2375.6250   222.8070 
1933   2376.2500   221.0705 
1934   2376.8750   220.6747 
1935   2377.5000   218.8539 
1936   2378.1250   218.5578 
1937   2378.7500   216.7442 
1938   2379.3750   216.6072 
1939   2380.0000   214.8008 
1940   2380.6250   214.6329 
1941   2381.2500   213.1574 
1942   2381.8750   214.0890 
1943   2382.5000   214.2830 
1944   2383.1250   216.7921 
1945   2383.7500   218.9318 
1946   2384.3750   222.7500 
1947   2385.0000   225.9247 
1948   2385.6250   230.1581 
1949   2386.2500   233.8558 
1950   2386.8750   237.6726 
1951   2387.5000   240.8180 
1952   2388.1250   243.5768 
1953   2388.7500   245.7194 
1954   2389.3750   247.5942 
1955   2390.0000   248.8735 
1956   2390.6250   250.0161 
1957   2391.2500   250.6260 
1958   2391.8750   251.1976 
1959   2392.5000   251.4049 
1960   2393.1250   251.7409 
1961   2393.7500   251.8445 
1962   2394.3750   252.1112 
1963   2395.0000   252.2052 
1964   2395.6250   252.4077 
1965   2396.2500   252.4693 
1966   2396.8750   252.6641 
1967   2397.5000   252.6984 
1968   2398.1250   252.8533 
1969   2398.7500   252.8648 
1970   2399.3750   252.9945 
1971   2400.0000   252.9982 
1972   2400.6250   253.1157 
1973   2401.2500   253.1179 
1974   2401.8750   253.2220 
1975   2402.5000   253.2103 
1976   2403.1250   253.2772 
1977   2403.7500   253.2538 
1978   2404.3750   253.3448 
1979   2405.0000   253.3286 
1980   2405.6250   253.4061 
1981   2406.2500   253.3864 
1982   2406.8750   253.4467 
1983   2407.5000   253.4262 
1984   2408.1250   253.4891 
1985   2408.7500   253.4757 
1986   2409.3750   253.5508 
1987   2410.0000   253.5328 
1988   2410.6250   253.5766 
1989   2411.2500   253.5632 
1990   2411.8750   253.6339 
1991   2412.5000   253.6182 
1992   2413.1250   253.6748 
1993   2413.7500   253.6555 
1994   2414.3750   253.7062 
1995   2415.0000   253.6936 
1996   2415.6250   253.7439 
1997   2416.2500   253.7274 
1998   2416.8750   253.7800 
1999   2417.5000   253.7621 
2000   2418.1250   253.7991 
2001   2418.7500   253.7762 
2002   2419.3750   253.8352 
2003   2420.0000   253.8275 
2004   2420.6250   253.8728 
2005   2421.2500   253.8544 
2006   2421.8750   253.8990 
2007   2422.5000   253.8800 
2008   2423.1250   253.9124 
2009   2423.7500   253.8997 
2010   2424.3750   253.9441 
2011   2425.0000   253.9277 
2012   2425.6250   253.9628 
2013   2426.2500   253.9408 
2014   2426.8750   253.9864 
2015   2427.5000   253.9723 
2016   2428.1250   254.0003 
2017   2428.7500   253.9574 
2018   2429.3750   253.9940 
2019   2430.0000   253.9999 
2020   2430.6250   254.0310 
2021   2431.2500   253.9964 
2022   2431.8750   254.0379 
2023   2432.5000   254.0393 
2024   2433.1250   254.0674 
2025   2433.7500   254.0482 
2026   2434.3750   254.0871 
2027   2435.0000   254.0721 
2028   2435.6250   254.1009 
2029   2436.2500   254.0822 
2030   2436.8750   254.1114 
2031   2437.5000   254.0915 
2032   2438.1250   254.1158 
2033   2438.7500   254.0936 
2034   2439.3750   254.1174 
2035   2440.0000   254.0954 
2036   2440.6250   254.1090 
2037   2441.2500   254.0632 
2038   2441.8750   254.0858 
2039   2442.5000   254.0864 
2040   2443.1250   254.1082 
2041   2443.7500   254.0859 
2042   2444.3750   254.1041 
2043   2445.0000   254.0824 
2044   2445.6250   254.0999 
2045   2446.2500   254.0791 
2046   2446.8750   254.0972 
2047   2447.5000   254.0767 
2048   2448.1250   254.0907 
2049   2448.7500   254.0723 
2050   2449.3750   254.0966 
2051   2450.0000   254.0778 
2052   2450.6250   254.0785 
2053   2451.2500   254.0667 
2054   2451.8750   254.1042 
2055   2452.5000   254.0841 
2056   2453.1250   254.1263 
2057   2453.7500   254.1362 
2058   2454.3750   254.1720 
2059   2455.0000   254.1678 
2060   2455.6250   254.2020 
2061   2456.2500   254.2038 
2062   2456.8750   254.2419 
2063   2457.5000   254.2442 
2064   2458.1250   254.2889 
2065   2458.7500   254.2915 
2066   2459.3750   254.3102 
2067   2460.0000   254.3194 
2068   2460.6250   254.3873 
2069   2461.2500   254.4031 
2070   2461.8750   254.4412 
2071   2462.5000   254.4177 
2072   2463.1250   254.4087 
2073   2463.7500   254.3717 
2074   2464.3750   254.3653 
2075   2465.0000   254.3243 
2076   2465.6250   254.3174 
2077   2466.2500   254.2823 
2078   2466.8750   254.2844 
2079   2467.5000   254.2537 
2080   2468.1250   254.2566 
2081   2468.7500   254.2287 
2082   2469.3750   254.2339 
2083   2470.0000   254.2092 
2084   2470.6250   254.2164 
2085   2471.2500   254.1963 
2086   2471.8750   254.1956 
2087   2472.5000   254.1564 
2088   2473.1250   254.1555 
2089   2473.7500   254.1255 
2090   2474.3750   254.1781 
2091   2475.0000   254.2058 
2092   2475.6250   254.2319 
2093   2476.2500   254.2248 
2094   2476.8750   254.2204 
2095   2477.5000   254.1658 
2096   2478.1250   254.2140 
2097   2478.7500   254.2600 
2098   2479.3750   254.2909 
2099   2480.0000   254.2864 
2100   2480.6250   254.3115 
2101   2481.2500   254.3104 
2102   2481.8750   254.3349 
2103   2482.5000   254.3317 
2104   2483.1250   254.3534 
2105   2483.7500   254.3515 
2106   2484.3750   254.3790 
2107   2485.0000   254.3795 
2108   2485.6250   254.4026 
2109   2486.2500   254.3992 
2110   2486.8750   254.4192 
2111   2487.5000   254.4145 
2112   2488.1250   254.4335 
2113   2488.7500   254.4283 
2114   2489.3750   254.4463 
2115   2490.0000   254.4367 
2116   2490.6250   254.4518 
2117   2491.2500   254.4457 
2118   2491.8750   254.4615 
2119   2492.5000   254.4556 
2120   2493.1250   254.4465 
2121   2493.7500   254.3583 
2122   2494.3750   254.3266 
2123   2495.0000   254.3536 
2124   2495.6250   254.4371 
2125   2496.2500   254.4669 
2126   2496.8750   254.4852 
2127   2497.5000   254.4784 
2128   2498.1250   254.4892 
2129   2498.7500   254.4795 
2130   2499.3750   254.4879 
2131   2500.0000   254.4794 
2132   2500.6250   254.4919 
2133   2501.2500   254.4857 
2134   2501.8750   254.4907 
2135   2502.5000   254.4737 
2136   2503.1250   254.4803 
2137   2503.7500   254.4697 
2138   2504.3750   254.4737 
2139   2505.0000   254.4653 
2140   2505.6250   254.4772 
2141   2506.2500   254.4654 
2142   2506.8750   254.4740 
2143   2507.5000   254.4628 
2144   2508.1250   254.4717 
2145   2508.7500   254.4606 
2146   2509.3750   254.4689 
2147   2510.0000   254.4598 
2148   2510.6250   254.4587 
2149   2511.2500   254.3817 
2150   2511.8750   254.3639 
2151   2512.5000   254.3818 
2152   2513.1250   254.4345 
2153   2513.7500   254.4518 
2154   2514.3750   254.4388 
2155   2515.0000   254.3779 
2156   2515.6250   254.3727 
2157   2516.2500   254.4296 
2158   2516.8750   254.4679 
2159   2517.5000   254.4639 
2160   2518.1250   254.4734 
2161   2518.7500   254.4648 
2162   2519.3750   254.4687 
2163   2520.0000   254.4605 
2164   2520.6250   254.4669 
2165   2521.2500   254.4580 
2166   2521.8750   254.4650 
2167   2522.5000   254.4581 
2168   2523.1250   254.4617 
2169   2523.7500   254.4533 
2170   2524.3750   254.4603 
2171   2525.0000   254.4401 
2172   2525.6250   254.3938 
2173   2526.2500   254.3667 
2174   2526.8750   254.4256 
2175   2527.5000   254.4266 
2176   2528.1250   254.4076 
2177   2528.7500   254.3503 
2178   2529.3750   254.3633 
2179   2530.0000   254.3663 
2180   2530.6250   254.3977 
2181   2531.2500   254.3852 
2182   2531.8750   254.3830 
2183   2532.5000   254.3639 
2184   2533.1250   254.3677 
2185   2533.7500   254.3479 
2186   2534.3750   254.3376 
2187   2535.0000   254.3095 
2188   2535.6250   254.2805 
2189   2536.2500   254.1877 
2190   2536.8750   254.1584 
2191   2537.5000   254.1915 
2192   2538.1250   254.2133 
2193   2538.7500   254.1830 
2194   2539.3750   254.1656 
2195   2540.0000   254.1359 
2196   2540.6250   254.1201 
2197   2541.2500   254.0854 
2198   2541.8750   254.0678 
2199   2542.5000   254.0298 
2200   2543.1250   254.0039 
2201   2543.7500   253.9711 
2202   2544.3750   253.9586 
2203   2545.0000   253.8856 
2204   2545.6250   253.8289 
2205   2546.2500   253.8048 
2206   2546.8750   253.7947 
2207   2547.5000   253.7628 
2208   2548.1250   253.7871 
2209   2548.7500   253.7949 
2210   2549.3750   253.7652 
2211   2550.0000   253.7391 
2232   2550.6250   253.7286 
2233   2551.2500   253.7102 
2234   2551.8750   253.7042 
2235   2552.5000   253.7050 
