Surface Pressure: 1080.000 
Secant Angle :  0.000 
CO2 ppm : 400.000 
 
Index  Water        Fixed    Temperature 
  1   1.4452e+15   9.5563e+16   212.79 
  2   3.0423e+15   1.9320e+17   224.45 
  3   5.4921e+15   3.3380e+17   235.39 
  4   9.1473e+15   5.2045e+17   247.18 
  5   1.4004e+16   7.5594e+17   255.00 
  6   2.0078e+16   1.0454e+18   261.82 
  7   2.7452e+16   1.3896e+18   267.93 
  8   3.5774e+16   1.7902e+18   270.35 
  9   4.4991e+16   2.2515e+18   270.16 
 10   5.5384e+16   2.7716e+18   269.48 
 11   6.7056e+16   3.3556e+18   268.23 
 12   7.9970e+16   4.0019e+18   266.82 
 13   9.4161e+16   4.7120e+18   262.23 
 14   1.0966e+17   5.4877e+18   257.09 
 15   1.2647e+17   6.3290e+18   253.02 
 16   1.4463e+17   7.2374e+18   249.31 
 17   1.6407e+17   8.2106e+18   246.64 
 18   1.8490e+17   9.2526e+18   245.19 
 19   2.0704e+17   1.0361e+19   243.18 
 20   2.3053e+17   1.1536e+19   240.55 
 21   2.5536e+17   1.2779e+19   237.99 
 22   2.8154e+17   1.4089e+19   235.38 
 23   3.0905e+17   1.5466e+19   232.86 
 24   3.3790e+17   1.6909e+19   230.44 
 25   3.6807e+17   1.8419e+19   228.13 
 26   3.9956e+17   1.9995e+19   225.97 
 27   4.3236e+17   2.1636e+19   224.51 
 28   4.6808e+17   2.3342e+19   223.27 
 29   5.1910e+17   2.5113e+19   222.07 
 30   5.7314e+17   2.6947e+19   221.05 
 31   6.2116e+17   2.8845e+19   220.43 
 32   6.7071e+17   3.0804e+19   219.86 
 33   7.2234e+17   3.2825e+19   219.30 
 34   7.7602e+17   3.4908e+19   218.76 
 35   8.3258e+17   3.7049e+19   218.20 
 36   9.0212e+17   3.9250e+19   217.29 
 37   9.7805e+17   4.1507e+19   216.28 
 38   1.0603e+18   4.3824e+19   215.31 
 39   1.1501e+18   4.6195e+19   214.34 
 40   1.2903e+18   4.8621e+19   212.97 
 41   1.4556e+18   5.1101e+19   211.49 
 42   1.6811e+18   5.3635e+19   210.04 
 43   2.0644e+18   5.6219e+19   208.63 
 44   2.5598e+18   5.8855e+19   207.42 
 45   3.7391e+18   6.1540e+19   207.54 
 46   5.1113e+18   6.4273e+19   207.96 
 47   6.2952e+18   6.7052e+19   208.49 
 48   7.4652e+18   6.9877e+19   209.04 
 49   8.8321e+18   7.2749e+19   209.73 
 50   1.0520e+19   7.5661e+19   210.68 
 51   1.3535e+19   7.8615e+19   212.35 
 52   1.7456e+19   8.1612e+19   214.42 
 53   2.1564e+19   8.4645e+19   216.45 
 54   2.5858e+19   8.7718e+19   218.43 
 55   3.0411e+19   9.0827e+19   220.38 
 56   4.4614e+19   9.3969e+19   222.42 
 57   6.6280e+19   9.7143e+19   224.52 
 58   8.8894e+19   1.0035e+20   226.58 
 59   1.1245e+20   1.0359e+20   228.60 
 60   1.3841e+20   1.0685e+20   230.99 
 61   1.6851e+20   1.1015e+20   234.19 
 62   1.9983e+20   1.1347e+20   237.36 
 63   2.3226e+20   1.1682e+20   240.47 
 64   3.1391e+20   1.2017e+20   243.20 
 65   4.4728e+20   1.2354e+20   245.57 
 66   5.8540e+20   1.2693e+20   247.90 
 67   7.3958e+20   1.3034e+20   250.25 
 68   9.4901e+20   1.3375e+20   252.81 
 69   1.1713e+21   1.3717e+20   255.36 
 70   1.3968e+21   1.4061e+20   257.80 
 71   1.6022e+21   1.4407e+20   259.62 
 72   1.8285e+21   1.4754e+20   261.29 
 73   2.1262e+21   1.5100e+20   262.90 
 74   2.4356e+21   1.5447e+20   264.46 
 75   2.7007e+21   1.5796e+20   265.50 
 76   2.9870e+21   1.6145e+20   266.58 
 77   3.3658e+21   1.6493e+20   268.27 
 78   3.7556e+21   1.6840e+20   269.96 
 79   4.1615e+21   1.7188e+20   271.64 
 80   4.7138e+21   1.7532e+20   273.63 
 81   5.3318e+21   1.7875e+20   275.73 
 82   5.9601e+21   1.8218e+20   277.68 
 83   6.5968e+21   1.8560e+20   279.45 
 84   7.2179e+21   1.8902e+20   281.15 
 85   7.7343e+21   1.9247e+20   282.65 
 86   8.1970e+21   1.9592e+20   283.71 
 87   8.6483e+21   1.9937e+20   284.61 
 88   9.1055e+21   2.0280e+20   285.49 
 89   9.9995e+21   2.0612e+20   286.92 
 90   1.1518e+22   2.0928e+20   289.13 
 91   1.3072e+22   2.1241e+20   291.32 
 92   1.4848e+22   2.1548e+20   293.51 
 93   1.6787e+22   2.1849e+20   295.70 
 94   1.8845e+22   2.2145e+20   298.08 
 95   2.1628e+22   2.2422e+20   302.10 
 96   2.4613e+22   2.2691e+20   305.26 
 97   2.7648e+22   2.2958e+20   308.00 
 98   3.0731e+22   2.3222e+20   310.70 
 99   3.3859e+22   2.3482e+20   313.36 
100   3.7032e+22   2.3738e+20   315.99 
 
Index  Efreq        Emis 
  1   769.2308     0.9767   
  2   800.0000     0.9829   
  3   833.3333     0.9889   
  4   869.5652     0.9919   
  5   909.0909     0.9925   
  6   952.3810     0.9913   
  7   1000.0000     0.9891   
  8   1041.6666     0.9875   
  9   1086.9565     0.9863   
 10   1136.3636     0.9851   
 11   1190.4762     0.9840   
 12   1250.0000     0.9831   
 13   2439.0244     0.9776   
 14   2500.0000     0.9770   
 15   2564.1025     0.9764   
 16   2631.5789     0.9756   
 17   2702.7026     0.9745   
 18   2777.7778     0.9732   
 19   2857.1428     0.9715   
 
Chan ID   Freq    BT(K)
2212   647.5000   228.4121 
2213   648.1250   226.5530 
2214   648.7500   233.8741 
2215   649.3750   231.4707 
  1   650.0000   227.6937 
  2   650.6250   226.8602 
  3   651.2500   223.4615 
  4   651.8750   225.9259 
  5   652.5000   224.2407 
  6   653.1250   224.7928 
  7   653.7500   225.6159 
  8   654.3750   223.4499 
  9   655.0000   226.3439 
 10   655.6250   224.2879 
 11   656.2500   225.7038 
 12   656.8750   225.7182 
 13   657.5000   224.1644 
 14   658.1250   226.2676 
 15   658.7500   223.6157 
 16   659.3750   225.2851 
 17   660.0000   224.9496 
 18   660.6250   223.6643 
 19   661.2500   225.6365 
 20   661.8750   225.6348 
 21   662.5000   232.6081 
 22   663.1250   232.3179 
 23   663.7500   227.2862 
 24   664.3750   227.3516 
 25   665.0000   227.4733 
 26   665.6250   225.4362 
 27   666.2500   223.5159 
 28   666.8750   231.3445 
 29   667.5000   248.2340 
 30   668.1250   253.8768 
 31   668.7500   247.5710 
 32   669.3750   240.2658 
 33   670.0000   233.1369 
 34   670.6250   227.7804 
 35   671.2500   228.4492 
 36   671.8750   225.2195 
 37   672.5000   226.3619 
 38   673.1250   227.5840 
 39   673.7500   224.7236 
 40   674.3750   227.6652 
 41   675.0000   225.0621 
 42   675.6250   225.9987 
 43   676.2500   227.3778 
 44   676.8750   224.2274 
 45   677.5000   227.7015 
 46   678.1250   225.3357 
 47   678.7500   226.0676 
 48   679.3750   227.9841 
 49   680.0000   224.1145 
 50   680.6250   227.4217 
 51   681.2500   225.3735 
 52   681.8750   224.5943 
 53   682.5000   227.1193 
 54   683.1250   223.1494 
 55   683.7500   226.0657 
 56   684.3750   224.9592 
 57   685.0000   223.2241 
 58   685.6250   226.1510 
 59   686.2500   222.5569 
 60   686.8750   223.8949 
 61   687.5000   223.9674 
 62   688.1250   221.9696 
 63   688.7500   226.0262 
 64   689.3750   224.0422 
 65   690.0000   223.6072 
 66   690.6250   224.1153 
 67   691.2500   221.5752 
 68   691.8750   223.8624 
 69   692.5000   223.0653 
 70   693.1250   222.0339 
 71   693.7500   223.5050 
 72   694.3750   222.3051 
 73   695.0000   222.7596 
 74   695.6250   223.6124 
 75   696.2500   222.9528 
 76   696.8750   223.6906 
 77   697.5000   224.5874 
 78   698.1250   223.6214 
 79   698.7500   224.8559 
 80   699.3750   226.1182 
 81   700.0000   224.7046 
 82   700.6250   226.4260 
 83   701.2500   227.1180 
 84   701.8750   226.6770 
 85   702.5000   228.6005 
 86   703.1250   228.8490 
 87   703.7500   231.0971 
 88   704.3750   232.4457 
 89   705.0000   230.9150 
 90   705.6250   233.4050 
 91   706.2500   234.9350 
 92   706.8750   234.5065 
 93   707.5000   236.2179 
 94   708.1250   236.3097 
 95   708.7500   236.5099 
 96   709.3750   238.7479 
 97   710.0000   239.5371 
 98   710.6250   240.8996 
 99   711.2500   242.2342 
100   711.8750   241.7025 
101   712.5000   244.8169 
102   713.1250   243.2958 
103   713.7500   242.9951 
104   714.3750   247.9138 
105   715.0000   245.3901 
106   715.6250   249.4290 
107   716.2500   250.3075 
108   716.8750   246.3369 
109   717.5000   249.8718 
110   718.1250   243.4022 
111   718.7500   232.8616 
112   719.3750   227.3799 
113   720.0000   227.9892 
114   720.6250   232.4522 
115   721.2500   241.0173 
116   721.8750   252.6402 
117   722.5000   256.7761 
118   723.1250   257.5986 
119   723.7500   255.5250 
120   724.3750   262.0568 
121   725.0000   261.8994 
122   725.6250   259.0078 
123   726.2500   263.0434 
124   726.8750   256.5686 
125   727.5000   259.4659 
126   728.1250   257.7852 
127   728.7500   249.8152 
128   729.3750   250.0377 
129   730.0000   247.4312 
130   730.6250   250.0912 
131   731.2500   251.4069 
132   731.8750   254.2616 
133   732.5000   259.6174 
134   733.1250   254.7052 
135   733.7500   259.3446 
136   734.3750   257.5032 
137   735.0000   256.3339 
138   735.6250   259.9852 
139   736.2500   253.9822 
140   736.8750   257.6317 
141   737.5000   257.0453 
142   738.1250   259.4720 
143   738.7500   261.3406 
144   739.3750   257.0415 
145   740.0000   258.1195 
146   740.6250   249.0331 
147   741.2500   243.7284 
148   741.8750   248.6637 
149   742.5000   257.5443 
150   743.1250   263.8818 
151   743.7500   259.1801 
152   744.3750   259.3488 
153   745.0000   259.6173 
154   745.6250   265.7085 
155   746.2500   270.9128 
156   746.8750   267.0902 
157   747.5000   270.9782 
158   748.1250   265.9521 
159   748.7500   268.3239 
160   749.3750   271.1508 
161   750.0000   268.7363 
162   750.6250   271.8393 
163   751.2500   269.5638 
164   751.8750   271.0893 
165   752.5000   269.8434 
166   753.1250   270.7904 
167   753.7500   269.3433 
168   754.3750   264.0003 
169   755.0000   270.2570 
170   755.6250   272.6847 
171   756.2500   275.0008 
172   756.8750   276.3174 
173   757.5000   275.3946 
174   758.1250   280.1199 
175   758.7500   279.4171 
176   759.3750   281.5008 
177   760.0000   280.5660 
178   760.6250   279.9437 
179   761.2500   282.0236 
180   761.8750   281.4833 
181   762.5000   283.7932 
182   763.1250   282.9561 
183   763.7500   283.4110 
184   764.3750   283.5639 
185   765.0000   283.3720 
186   765.6250   285.0237 
187   766.2500   284.2269 
188   766.8750   283.9561 
189   767.5000   283.4021 
190   768.1250   283.0605 
191   768.7500   279.3480 
192   769.3750   278.5116 
193   770.0000   279.5877 
194   770.6250   282.5182 
195   771.2500   285.2854 
196   771.8750   286.2846 
197   772.5000   286.7657 
198   773.1250   286.8444 
199   773.7500   286.7353 
200   774.3750   285.7453 
201   775.0000   281.6584 
202   775.6250   277.4529 
203   776.2500   278.5767 
204   776.8750   275.6142 
205   777.5000   279.7224 
206   778.1250   285.2488 
207   778.7500   282.8429 
208   779.3750   280.6746 
209   780.0000   285.1413 
210   780.6250   287.6330 
211   781.2500   288.0439 
212   781.8750   287.7186 
213   782.5000   287.5811 
214   783.1250   286.2853 
215   783.7500   280.1531 
216   784.3750   272.3540 
217   785.0000   277.5896 
218   785.6250   285.5576 
219   786.2500   287.9889 
220   786.8750   288.5638 
221   787.5000   288.7978 
222   788.1250   289.0202 
223   788.7500   289.2398 
224   789.3750   289.2999 
225   790.0000   289.3083 
226   790.6250   288.4923 
227   791.2500   282.0945 
228   791.8750   277.1707 
229   792.5000   282.7685 
230   793.1250   284.2368 
231   793.7500   279.8636 
232   794.3750   281.4919 
233   795.0000   282.4168 
234   795.6250   273.9725 
235   796.2500   274.8461 
236   796.8750   281.0424 
237   797.5000   279.3183 
238   798.1250   272.2962 
239   798.7500   269.0980 
240   799.3750   279.1470 
241   800.0000   286.6209 
242   800.6250   288.7014 
243   801.2500   289.0005 
244   801.8750   288.5880 
245   802.5000   284.9031 
246   803.1250   277.6885 
247   803.7500   279.8032 
248   804.3750   286.9043 
249   805.0000   289.4550 
250   805.6250   288.8028 
251   806.2500   287.9296 
252   806.8750   289.0345 
253   807.5000   286.4444 
254   808.1250   281.0948 
255   808.7500   284.7028 
256   809.3750   289.5738 
257   810.0000   290.7760 
258   810.6250   290.8081 
259   811.2500   290.8491 
260   811.8750   291.0453 
261   812.5000   290.6310 
262   813.1250   288.5091 
263   813.7500   282.5383 
264   814.3750   280.7063 
265   815.0000   286.0571 
266   815.6250   290.1096 
267   816.2500   290.9543 
268   816.8750   291.2108 
269   817.5000   291.5116 
270   818.1250   291.7229 
271   818.7500   291.6676 
272   819.3750   291.8533 
273   820.0000   291.8282 
274   820.6250   291.8859 
275   821.2500   291.9463 
276   821.8750   291.9247 
277   822.5000   291.8492 
278   823.1250   291.9550 
279   823.7500   292.0360 
280   824.3750   290.7014 
281   825.0000   287.3393 
282   825.6250   288.7888 
283   826.2500   291.2083 
284   826.8750   288.2812 
285   827.5000   283.7598 
286   828.1250   286.4914 
287   828.7500   291.3479 
288   829.3750   292.2931 
289   830.0000   292.5211 
290   830.6250   292.4750 
291   831.2500   292.7479 
292   831.8750   292.6663 
293   832.5000   292.8018 
294   833.1250   292.7035 
295   833.7500   292.8739 
296   834.3750   292.6857 
297   835.0000   291.7490 
298   835.6250   290.7857 
299   836.2500   292.1419 
300   836.8750   292.7885 
301   837.5000   292.8085 
302   838.1250   292.5622 
303   838.7500   292.2453 
304   839.3750   287.7689 
305   840.0000   283.6713 
306   840.6250   288.1708 
307   841.2500   291.0541 
308   841.8750   290.1381 
309   842.5000   291.5963 
310   843.1250   292.7295 
311   843.7500   292.8988 
312   844.3750   292.7920 
313   845.0000   292.7969 
314   845.6250   292.5101 
315   846.2500   292.6625 
316   846.8750   292.6321 
317   847.5000   292.7444 
318   848.1250   292.5006 
319   848.7500   290.4186 
320   849.3750   284.8518 
321   850.0000   286.3631 
322   850.6250   291.1509 
323   851.2500   291.3195 
324   851.8750   285.5270 
325   852.5000   277.9143 
326   853.1250   281.6681 
327   853.7500   286.8233 
328   854.3750   284.1946 
329   855.0000   286.2958 
330   855.6250   291.9029 
331   856.2500   293.2518 
332   856.8750   293.5586 
333   857.5000   293.5134 
334   858.1250   292.8034 
335   858.7500   292.3702 
336   859.3750   292.9561 
337   860.0000   293.2453 
338   860.6250   293.8488 
339   861.2500   293.9025 
340   861.8750   293.9884 
341   862.5000   293.8960 
342   863.1250   293.9911 
343   863.7500   293.8324 
344   864.3750   292.1718 
345   865.0000   287.8358 
346   865.6250   288.0953 
347   866.2500   292.4908 
348   866.8750   293.9999 
349   867.5000   294.1105 
350   868.1250   294.1201 
351   868.7500   294.1593 
352   869.3750   294.1051 
353   870.0000   293.7897 
354   870.6250   290.1769 
355   871.2500   285.9915 
356   871.8750   290.0594 
357   872.5000   293.8257 
358   873.1250   294.2320 
359   873.7500   294.3891 
360   874.3750   294.3789 
361   875.0000   294.4371 
362   875.6250   294.2485 
363   876.2500   294.2983 
364   876.8750   294.3258 
365   877.5000   293.6991 
366   878.1250   289.7318 
367   878.7500   288.3381 
368   879.3750   292.6241 
369   880.0000   294.2684 
370   880.6250   292.9193 
371   881.2500   292.1652 
372   881.8750   293.8225 
373   882.5000   293.6637 
374   883.1250   291.0830 
375   883.7500   288.6694 
376   884.3750   291.3410 
377   885.0000   294.2191 
378   885.6250   294.4427 
379   886.2500   293.1259 
380   886.8750   287.6502 
381   887.5000   286.8531 
382   888.1250   290.6240 
383   888.7500   291.0606 
384   889.3750   292.9886 
385   890.0000   292.9680 
386   890.6250   293.0774 
387   891.2500   292.6723 
388   891.8750   293.9559 
389   892.5000   294.9676 
390   893.1250   295.1560 
391   893.7500   295.1503 
392   894.3750   295.2446 
393   895.0000   295.1558 
394   895.6250   294.9917 
395   896.2500   294.6520 
396   896.8750   294.7813 
397   897.5000   294.3142 
398   898.1250   294.6414 
399   898.7500   295.3347 
400   899.3750   295.5446 
401   900.0000   295.5488 
402   900.6250   295.5966 
403   901.2500   295.6007 
404   901.8750   295.5876 
405   902.5000   295.4337 
406   903.1250   295.5881 
407   903.7500   295.6178 
408   904.3750   295.6304 
409   905.0000   295.2409 
410   905.6250   293.9832 
411   906.2500   292.2633 
412   906.8750   293.5984 
413   907.5000   294.8923 
414   908.1250   292.5656 
415   908.7500   286.7201 
416   909.3750   288.2935 
417   910.0000   293.1221 
418   910.6250   294.1948 
419   911.2500   295.2088 
420   911.8750   295.5117 
421   912.5000   295.7347 
422   913.1250   295.2003 
423   913.7500   293.9413 
424   914.3750   294.0457 
425   915.0000   295.4345 
426   915.6250   295.6797 
427   916.2500   295.8336 
428   916.8750   295.7804 
429   917.5000   295.6747 
430   918.1250   294.1180 
431   918.7500   294.0473 
432   919.3750   295.4817 
433   920.0000   295.9607 
434   920.6250   295.2184 
435   921.2500   292.4099 
436   921.8750   288.4672 
437   922.5000   289.9800 
438   923.1250   294.3231 
439   923.7500   295.7488 
440   924.3750   293.2705 
441   925.0000   289.8425 
442   925.6250   293.0140 
443   926.2500   295.8471 
444   926.8750   296.0291 
445   927.5000   296.1139 
446   928.1250   295.8361 
447   928.7500   294.8907 
448   929.3750   295.3700 
449   930.0000   296.2570 
450   930.6250   296.1763 
451   931.2500   296.2209 
452   931.8750   296.4410 
453   932.5000   296.3760 
454   933.1250   296.4420 
455   933.7500   296.8955 
456   934.3750   296.7545 
457   935.0000   296.5971 
458   935.6250   297.0066 
459   936.2500   296.9327 
460   936.8750   296.4437 
461   937.5000   296.8285 
462   938.1250   296.8657 
463   938.7500   296.6873 
464   939.3750   297.1358 
465   940.0000   296.8114 
466   940.6250   295.2161 
467   941.2500   295.4799 
468   941.8750   296.5257 
469   942.5000   296.6530 
470   943.1250   297.2047 
471   943.7500   296.6313 
472   944.3750   295.2650 
473   945.0000   295.5374 
474   945.6250   296.1356 
475   946.2500   296.1521 
476   946.8750   296.3520 
477   947.5000   293.4333 
478   948.1250   288.2507 
479   948.7500   291.3621 
480   949.3750   295.6147 
481   950.0000   296.9445 
482   950.6250   297.1952 
483   951.2500   296.7437 
484   951.8750   297.4470 
485   952.5000   296.4824 
486   953.1250   294.0388 
487   953.7500   294.6751 
488   954.3750   295.6813 
489   955.0000   293.6558 
490   955.6250   293.3818 
491   956.2500   296.1398 
492   956.8750   297.8115 
493   957.5000   297.8074 
494   958.1250   297.7184 
495   958.7500   297.1443 
496   959.3750   296.0088 
497   960.0000   296.7550 
498   960.6250   297.6754 
499   961.2500   297.8486 
500   961.8750   297.8295 
501   962.5000   298.1006 
502   963.1250   298.0038 
503   963.7500   298.1218 
504   964.3750   297.8911 
505   965.0000   297.5778 
506   965.6250   296.7502 
507   966.2500   295.6537 
508   966.8750   295.6350 
509   967.5000   296.4637 
510   968.1250   297.4678 
511   968.7500   297.4792 
512   969.3750   297.2373 
513   970.0000   297.0557 
514   970.6250   295.4384 
515   971.2500   293.7374 
516   971.8750   294.0440 
517   972.5000   296.4272 
518   973.1250   294.1899 
519   973.7500   292.4619 
520   974.3750   294.4386 
521   975.0000   296.0450 
522   975.6250   292.9910 
523   976.2500   292.7677 
524   976.8750   294.6152 
525   977.5000   294.1044 
526   978.1250   295.7972 
527   978.7500   296.5253 
528   979.3750   296.8902 
529   980.0000   296.9741 
530   980.6250   296.7000 
531   981.2500   296.0702 
532   981.8750   295.9449 
533   982.5000   296.5387 
534   983.1250   296.4222 
535   983.7500   295.4624 
536   984.3750   295.0621 
537   985.0000   295.8708 
538   985.6250   296.1393 
539   986.2500   295.5263 
540   986.8750   295.1998 
541   987.5000   294.9464 
542   988.1250   295.3219 
543   988.7500   294.4268 
544   989.3750   293.6836 
545   990.0000   293.2693 
546   990.6250   293.5626 
547   991.2500   293.3289 
548   991.8750   291.7730 
549   992.5000   291.6932 
550   993.1250   291.3999 
551   993.7500   291.8032 
552   994.3750   289.4550 
553   995.0000   289.3125 
554   995.6250   288.8931 
555   996.2500   290.1406 
556   996.8750   287.8634 
557   997.5000   286.6577 
558   998.1250   285.2380 
559   998.7500   284.9265 
560   999.3750   282.3649 
561   1000.0000   280.4536 
562   1000.6250   280.5133 
563   1001.2500   282.9493 
564   1001.8750   281.3577 
565   1002.5000   279.2834 
566   1003.1250   277.4769 
567   1003.7500   276.8106 
568   1004.3750   275.5143 
569   1005.0000   273.8306 
570   1005.6250   273.3458 
571   1006.2500   273.2033 
572   1006.8750   271.8515 
573   1007.5000   269.7025 
574   1008.1250   270.1534 
575   1008.7500   270.6693 
576   1009.3750   266.6400 
577   1010.0000   261.6143 
578   1010.6250   261.6830 
579   1011.2500   262.4183 
580   1011.8750   260.8321 
581   1012.5000   260.3847 
582   1013.1250   261.2118 
583   1013.7500   257.4887 
584   1014.3750   253.6673 
585   1015.0000   256.0436 
586   1015.6250   257.9973 
587   1016.2500   254.8900 
588   1016.8750   253.5448 
589   1017.5000   251.4994 
590   1018.1250   249.0732 
591   1018.7500   248.6230 
592   1019.3750   250.2632 
593   1020.0000   248.5037 
594   1020.6250   246.1598 
595   1021.2500   246.9870 
596   1021.8750   247.7378 
597   1022.5000   245.7502 
598   1023.1250   245.8555 
599   1023.7500   247.4182 
600   1024.3750   246.3771 
601   1025.0000   245.3046 
602   1025.6250   247.5226 
603   1026.2500   247.3480 
604   1026.8750   245.7860 
605   1027.5000   246.4465 
606   1028.1250   245.6306 
607   1028.7500   243.3395 
608   1029.3750   244.6059 
609   1030.0000   247.0508 
610   1030.6250   247.1659 
611   1031.2500   245.8208 
612   1031.8750   246.8040 
613   1032.5000   245.5662 
614   1033.1250   244.6142 
615   1033.7500   245.9161 
616   1034.3750   245.1332 
617   1035.0000   242.5880 
618   1035.6250   242.0529 
619   1036.2500   240.5705 
620   1036.8750   238.1283 
621   1037.5000   237.9137 
622   1038.1250   237.0728 
623   1038.7500   235.7781 
624   1039.3750   234.5152 
625   1040.0000   233.6403 
626   1040.6250   233.3916 
627   1041.2500   236.5600 
628   1041.8750   255.7473 
629   1042.5000   275.0169 
630   1043.1250   282.1747 
631   1043.7500   282.5455 
632   1044.3750   273.5454 
633   1045.0000   265.0399 
634   1045.6250   260.1081 
635   1046.2500   250.3213 
636   1046.8750   247.2377 
637   1047.5000   242.2273 
638   1048.1250   239.7661 
639   1048.7500   240.8942 
640   1049.3750   239.2492 
641   1050.0000   238.0763 
642   1050.6250   235.0599 
643   1051.2500   236.8364 
644   1051.8750   236.9988 
645   1052.5000   235.3882 
646   1053.1250   234.5497 
647   1053.7500   235.7721 
648   1054.3750   236.7928 
649   1055.0000   237.7520 
650   1055.6250   237.5779 
651   1056.2500   237.6886 
652   1056.8750   240.1940 
653   1057.5000   242.8423 
654   1058.1250   243.3306 
655   1058.7500   241.3564 
656   1059.3750   240.4856 
657   1060.0000   239.2185 
658   1060.6250   241.5546 
659   1061.2500   244.6238 
660   1061.8750   247.8998 
661   1062.5000   253.4073 
662   1063.1250   257.9977 
663   1063.7500   261.2567 
664   1064.3750   264.8207 
665   1065.0000   267.8655 
666   1065.6250   267.3578 
667   1066.2500   266.2274 
668   1066.8750   275.8900 
669   1067.5000   283.2849 
670   1068.1250   285.7311 
671   1068.7500   286.3809 
672   1069.3750   290.9478 
673   1070.0000   293.7150 
674   1070.6250   294.3115 
675   1071.2500   295.6646 
676   1071.8750   294.8819 
677   1072.5000   293.7552 
678   1073.1250   294.0150 
679   1073.7500   291.7907 
680   1074.3750   285.0997 
681   1075.0000   288.1758 
682   1075.6250   293.9951 
683   1076.2500   295.1812 
684   1076.8750   296.1443 
685   1077.5000   296.3128 
686   1078.1250   296.8873 
687   1078.7500   296.8202 
688   1079.3750   297.0372 
689   1080.0000   296.2466 
690   1080.6250   294.9053 
691   1081.2500   292.6027 
692   1081.8750   295.0230 
693   1082.5000   296.9191 
694   1083.1250   297.2758 
695   1083.7500   296.9830 
696   1084.3750   296.6965 
697   1085.0000   295.0648 
698   1085.6250   294.4673 
699   1086.2500   296.1745 
700   1086.8750   296.4530 
701   1087.5000   295.2032 
702   1088.1250   295.7914 
703   1088.7500   296.8519 
704   1089.3750   297.1048 
705   1090.0000   296.4989 
706   1090.6250   291.9059 
707   1091.2500   287.2777 
708   1091.8750   293.1143 
709   1092.5000   297.1769 
710   1093.1250   297.6204 
711   1093.7500   297.3242 
712   1094.3750   296.7900 
713   1095.0000   296.9104 
2216   1095.6250   298.1562 
2217   1096.2500   298.3345 
2218   1096.8750   298.3916 
2219   1097.5000   298.4883 
2220   1207.5000   297.5489 
2221   1208.1250   297.1097 
2222   1208.7500   294.1802 
2223   1209.3750   293.2667 
714   1210.0000   291.8027 
715   1210.6250   283.5109 
716   1211.2500   271.5106 
717   1211.8750   265.2650 
718   1212.5000   268.7622 
719   1213.1250   282.1391 
720   1213.7500   291.2591 
721   1214.3750   292.3036 
722   1215.0000   289.0378 
723   1215.6250   290.5116 
724   1216.2500   293.8884 
725   1216.8750   294.8359 
726   1217.5000   289.9680 
727   1218.1250   277.4775 
728   1218.7500   274.1591 
729   1219.3750   285.0598 
730   1220.0000   288.7541 
731   1220.6250   286.5260 
732   1221.2500   286.4301 
733   1221.8750   288.1774 
734   1222.5000   288.4897 
735   1223.1250   289.6118 
736   1223.7500   287.3527 
737   1224.3750   277.4136 
738   1225.0000   264.3627 
739   1225.6250   268.5943 
740   1226.2500   280.6859 
741   1226.8750   288.1406 
742   1227.5000   293.7675 
743   1228.1250   295.9932 
744   1228.7500   292.3014 
745   1229.3750   288.7480 
746   1230.0000   291.0662 
747   1230.6250   296.0039 
748   1231.2500   298.9953 
749   1231.8750   298.8259 
750   1232.5000   296.8856 
751   1233.1250   294.8483 
752   1233.7500   296.5777 
753   1234.3750   298.6462 
754   1235.0000   298.0837 
755   1235.6250   292.8991 
756   1236.2500   284.8859 
757   1236.8750   280.9618 
758   1237.5000   284.6853 
759   1238.1250   290.3193 
760   1238.7500   286.0285 
761   1239.3750   282.4403 
762   1240.0000   284.5323 
763   1240.6250   286.0515 
764   1241.2500   287.0819 
765   1241.8750   286.0489 
766   1242.5000   279.6089 
767   1243.1250   272.8159 
768   1243.7500   264.4936 
769   1244.3750   262.8908 
770   1245.0000   272.1256 
771   1245.6250   279.9933 
772   1246.2500   284.0678 
773   1246.8750   287.0417 
774   1247.5000   284.2166 
775   1248.1250   280.5601 
776   1248.7500   283.7909 
777   1249.3750   283.8053 
778   1250.0000   286.2199 
779   1250.6250   287.0072 
780   1251.2500   282.4363 
781   1251.8750   280.0993 
782   1252.5000   280.0995 
783   1253.1250   276.4987 
784   1253.7500   269.9848 
785   1254.3750   273.0797 
786   1255.0000   277.8390 
787   1255.6250   283.1809 
788   1256.2500   281.0534 
789   1256.8750   276.9782 
790   1257.5000   277.6644 
791   1258.1250   274.2119 
792   1258.7500   266.8399 
793   1259.3750   259.3753 
794   1260.0000   248.9134 
795   1260.6250   249.9259 
796   1261.2500   260.7585 
797   1261.8750   266.3639 
798   1262.5000   270.3418 
799   1263.1250   270.0258 
800   1263.7500   267.9749 
801   1264.3750   270.1140 
802   1265.0000   264.3039 
803   1265.6250   257.6959 
804   1266.2500   260.3812 
805   1266.8750   264.8907 
806   1267.5000   260.2842 
807   1268.1250   252.1734 
808   1268.7500   253.9534 
809   1269.3750   255.3294 
810   1270.0000   253.2685 
811   1270.6250   252.5401 
812   1271.2500   245.9754 
813   1271.8750   244.0835 
814   1272.5000   255.2198 
815   1273.1250   262.0587 
816   1273.7500   267.1808 
817   1274.3750   269.9654 
818   1275.0000   265.5935 
819   1275.6250   268.6232 
820   1276.2500   271.3651 
821   1276.8750   266.2063 
822   1277.5000   267.9436 
823   1278.1250   275.1165 
824   1278.7500   276.6451 
825   1279.3750   270.9122 
826   1280.0000   262.9616 
827   1280.6250   263.3505 
828   1281.2500   264.8544 
829   1281.8750   267.5251 
830   1282.5000   266.0050 
831   1283.1250   260.2647 
832   1283.7500   260.6388 
833   1284.3750   265.0219 
834   1285.0000   273.1537 
835   1285.6250   273.3194 
836   1286.2500   267.9985 
837   1286.8750   261.8107 
838   1287.5000   251.1034 
839   1288.1250   247.2243 
840   1288.7500   253.6923 
841   1289.3750   263.8602 
842   1290.0000   265.2148 
843   1290.6250   264.5034 
844   1291.2500   269.6735 
845   1291.8750   270.7036 
846   1292.5000   265.3228 
847   1293.1250   264.3995 
848   1293.7500   265.8472 
849   1294.3750   262.8735 
850   1295.0000   260.6304 
851   1295.6250   261.2842 
852   1296.2500   258.0549 
853   1296.8750   252.5893 
854   1297.5000   254.5207 
855   1298.1250   261.9558 
856   1298.7500   269.0772 
857   1299.3750   264.0389 
858   1300.0000   259.2632 
859   1300.6250   263.4935 
860   1301.2500   258.7549 
861   1301.8750   253.7107 
862   1302.5000   254.7471 
863   1303.1250   248.4603 
864   1303.7500   244.1056 
865   1304.3750   242.0405 
866   1305.0000   237.1659 
867   1305.6250   231.4388 
868   1306.2500   240.5777 
869   1306.8750   257.5350 
870   1307.5000   260.6089 
871   1308.1250   254.7534 
872   1308.7500   260.6332 
873   1309.3750   266.6100 
874   1310.0000   267.7018 
875   1310.6250   267.0757 
876   1311.2500   263.1657 
877   1311.8750   256.8875 
878   1312.5000   250.5875 
879   1313.1250   247.3242 
880   1313.7500   250.6170 
881   1314.3750   255.9324 
882   1315.0000   259.2380 
883   1315.6250   261.9957 
884   1316.2500   257.0953 
885   1316.8750   249.2850 
886   1317.5000   253.1722 
887   1318.1250   253.8362 
888   1318.7500   245.3035 
889   1319.3750   244.0897 
890   1320.0000   247.1135 
891   1320.6250   253.7388 
892   1321.2500   260.7697 
893   1321.8750   260.2587 
894   1322.5000   262.4850 
895   1323.1250   263.7747 
896   1323.7500   265.2745 
897   1324.3750   269.1509 
898   1325.0000   272.2457 
899   1325.6250   271.6802 
900   1326.2500   268.0809 
901   1326.8750   259.0905 
902   1327.5000   252.9458 
903   1328.1250   264.3161 
904   1328.7500   270.5701 
905   1329.3750   265.9756 
906   1330.0000   263.1833 
907   1330.6250   271.5765 
908   1331.2500   273.7408 
909   1331.8750   262.7118 
910   1332.5000   250.9290 
911   1333.1250   259.5325 
912   1333.7500   265.5258 
913   1334.3750   267.6091 
914   1335.0000   266.1936 
915   1335.6250   261.0977 
916   1336.2500   251.6370 
917   1336.8750   243.5931 
918   1337.5000   244.9805 
919   1338.1250   242.5690 
920   1338.7500   239.8943 
921   1339.3750   239.6107 
922   1340.0000   236.9202 
923   1340.6250   240.3730 
924   1341.2500   247.2257 
925   1341.8750   249.3471 
926   1342.5000   251.5343 
927   1343.1250   258.0212 
928   1343.7500   264.6302 
929   1344.3750   265.9983 
930   1345.0000   267.4620 
931   1345.6250   266.4445 
932   1346.2500   260.1826 
933   1346.8750   255.7017 
934   1347.5000   258.2027 
935   1348.1250   259.1732 
936   1348.7500   254.6965 
937   1349.3750   247.5208 
938   1350.0000   254.6338 
939   1350.6250   259.5950 
940   1351.2500   259.6239 
941   1351.8750   262.2404 
942   1352.5000   263.3708 
943   1353.1250   261.7549 
944   1353.7500   262.4371 
945   1354.3750   254.6036 
946   1355.0000   245.9856 
947   1355.6250   251.1733 
948   1356.2500   257.4290 
949   1356.8750   261.3897 
950   1357.5000   261.9411 
951   1358.1250   256.8408 
952   1358.7500   257.1664 
953   1359.3750   259.0171 
954   1360.0000   255.5204 
955   1360.6250   246.7011 
956   1361.2500   242.6715 
957   1361.8750   244.9850 
958   1362.5000   237.1147 
959   1363.1250   231.9875 
960   1363.7500   243.3644 
961   1364.3750   253.3379 
962   1365.0000   258.2455 
963   1365.6250   259.1411 
964   1366.2500   260.5190 
965   1366.8750   261.9494 
966   1367.5000   258.2441 
967   1368.1250   247.5537 
968   1368.7500   241.7434 
969   1369.3750   249.7197 
970   1370.0000   256.7703 
971   1370.6250   258.4516 
972   1371.2500   257.2272 
973   1371.8750   253.8802 
974   1372.5000   249.0269 
975   1373.1250   242.2567 
976   1373.7500   234.3196 
977   1374.3750   234.3418 
978   1375.0000   233.4108 
979   1375.6250   241.6824 
980   1376.2500   252.4067 
981   1376.8750   256.4569 
982   1377.5000   254.8561 
983   1378.1250   250.4487 
984   1378.7500   252.3869 
985   1379.3750   251.0204 
986   1380.0000   250.3381 
987   1380.6250   258.6493 
988   1381.2500   262.3610 
989   1381.8750   260.5375 
990   1382.5000   260.3141 
991   1383.1250   259.0132 
992   1383.7500   258.5163 
993   1384.3750   260.1654 
994   1385.0000   258.3150 
995   1385.6250   253.4851 
996   1386.2500   244.3158 
997   1386.8750   236.3391 
998   1387.5000   233.1262 
999   1388.1250   240.2339 
1000   1388.7500   249.7341 
1001   1389.3750   253.7399 
1002   1390.0000   251.9965 
1003   1390.6250   249.4871 
1004   1391.2500   252.1812 
1005   1391.8750   254.5948 
1006   1392.5000   253.4542 
1007   1393.1250   249.3431 
1008   1393.7500   239.9582 
1009   1394.3750   230.3504 
1010   1395.0000   231.6612 
1011   1395.6250   233.3034 
1012   1396.2500   239.5226 
1013   1396.8750   245.9455 
1014   1397.5000   242.6717 
1015   1398.1250   238.8670 
1016   1398.7500   232.8678 
1017   1399.3750   229.8481 
1018   1400.0000   240.0241 
1019   1400.6250   248.3641 
1020   1401.2500   253.1517 
1021   1401.8750   255.1517 
1022   1402.5000   255.0015 
1023   1403.1250   253.0106 
1024   1403.7500   249.5130 
1025   1404.3750   241.1058 
1026   1405.0000   233.6166 
1027   1405.6250   242.0598 
1028   1406.2500   251.6021 
1029   1406.8750   255.6269 
1030   1407.5000   257.5164 
1031   1408.1250   257.5826 
1032   1408.7500   257.4950 
1033   1409.3750   255.3963 
1034   1410.0000   251.8934 
1035   1410.6250   254.2124 
1036   1411.2500   250.0945 
1037   1411.8750   244.2653 
1038   1412.5000   251.5279 
1039   1413.1250   256.8392 
1040   1413.7500   256.0251 
1041   1414.3750   252.5396 
1042   1415.0000   250.1328 
1043   1415.6250   247.8216 
1044   1416.2500   244.4371 
1045   1416.8750   241.0882 
1046   1417.5000   235.9637 
1047   1418.1250   235.0303 
1048   1418.7500   227.7475 
1049   1419.3750   222.1238 
1050   1420.0000   229.7472 
1051   1420.6250   239.8142 
1052   1421.2500   245.1743 
1053   1421.8750   247.6282 
1054   1422.5000   246.7522 
1055   1423.1250   239.3680 
1056   1423.7500   229.9846 
1057   1424.3750   236.2168 
1058   1425.0000   246.9312 
1059   1425.6250   251.3699 
1060   1426.2500   252.5325 
1061   1426.8750   253.1556 
1062   1427.5000   251.7344 
1063   1428.1250   247.3992 
1064   1428.7500   244.1025 
1065   1429.3750   236.8762 
1066   1430.0000   230.1553 
1067   1430.6250   238.4447 
1068   1431.2500   244.9133 
1069   1431.8750   245.5150 
1070   1432.5000   246.0788 
1071   1433.1250   242.5048 
1072   1433.7500   241.7295 
1073   1434.3750   244.8863 
1074   1435.0000   242.0286 
1075   1435.6250   234.4375 
1076   1436.2500   225.8831 
1077   1436.8750   223.0765 
1078   1437.5000   230.7490 
1079   1438.1250   240.3186 
1080   1438.7500   245.8875 
1081   1439.3750   248.9895 
1082   1440.0000   250.6947 
1083   1440.6250   252.0803 
1084   1441.2500   252.4739 
1085   1441.8750   253.6051 
1086   1442.5000   253.2264 
1087   1443.1250   253.3812 
1088   1443.7500   254.4004 
1089   1444.3750   253.7468 
1090   1445.0000   251.3943 
1091   1445.6250   249.3612 
1092   1446.2500   244.3671 
1093   1446.8750   240.0672 
1094   1447.5000   233.7756 
1095   1448.1250   230.5863 
1096   1448.7500   239.7569 
1097   1449.3750   246.3764 
1098   1450.0000   248.4395 
1099   1450.6250   247.6327 
1100   1451.2500   245.3216 
1101   1451.8750   239.5103 
1102   1452.5000   240.9478 
1103   1453.1250   243.8609 
1104   1453.7500   241.7125 
1105   1454.3750   236.4862 
1106   1455.0000   230.2118 
1107   1455.6250   226.7290 
1108   1456.2500   223.1416 
1109   1456.8750   220.2252 
1110   1457.5000   221.1892 
1111   1458.1250   221.3776 
1112   1458.7500   222.5663 
1113   1459.3750   227.4468 
1114   1460.0000   236.4760 
1115   1460.6250   242.2497 
1116   1461.2500   244.3650 
1117   1461.8750   244.8434 
1118   1462.5000   244.0969 
1119   1463.1250   242.0595 
1120   1463.7500   236.6102 
1121   1464.3750   227.2887 
1122   1465.0000   222.5884 
1123   1465.6250   230.1285 
1124   1466.2500   237.6081 
1125   1466.8750   241.1227 
1126   1467.5000   243.1607 
1127   1468.1250   245.2413 
1128   1468.7500   245.8090 
1129   1469.3750   243.8861 
1130   1470.0000   241.1918 
1131   1470.6250   237.2039 
1132   1471.2500   229.3028 
1133   1471.8750   221.3708 
1134   1472.5000   222.0663 
1135   1473.1250   222.6113 
1136   1473.7500   224.5034 
1137   1474.3750   232.2257 
1138   1475.0000   236.8908 
1139   1475.6250   232.5302 
1140   1476.2500   226.8992 
1141   1476.8750   234.6882 
1142   1477.5000   243.2024 
1143   1478.1250   246.9128 
1144   1478.7500   248.5383 
1145   1479.3750   248.9120 
1146   1480.0000   247.2038 
1147   1480.6250   241.4831 
1148   1481.2500   235.2058 
1149   1481.8750   239.7474 
1150   1482.5000   246.4974 
1151   1483.1250   248.5096 
1152   1483.7500   247.3856 
1153   1484.3750   245.8292 
1154   1485.0000   244.7986 
1155   1485.6250   241.9534 
1156   1486.2500   235.7719 
1157   1486.8750   227.9958 
1158   1487.5000   225.1841 
1159   1488.1250   231.5963 
1160   1488.7500   231.8457 
1161   1489.3750   225.4904 
1162   1490.0000   223.0141 
1163   1490.6250   223.1226 
1164   1491.2500   229.0814 
1165   1491.8750   237.8609 
1166   1492.5000   241.4078 
1167   1493.1250   241.5189 
1168   1493.7500   241.8415 
1169   1494.3750   240.5021 
1170   1495.0000   235.5262 
1171   1495.6250   227.1939 
1172   1496.2500   221.5189 
1173   1496.8750   226.2959 
1174   1497.5000   231.0932 
1175   1498.1250   228.2199 
1176   1498.7500   223.4587 
1177   1499.3750   227.6424 
1178   1500.0000   233.0819 
1179   1500.6250   235.3269 
1180   1501.2500   234.6643 
1181   1501.8750   234.3009 
1182   1502.5000   237.0605 
1183   1503.1250   237.3557 
1184   1503.7500   234.4239 
1185   1504.3750   228.9872 
1186   1505.0000   222.3302 
1187   1505.6250   218.2140 
1188   1506.2500   217.5908 
1189   1506.8750   218.0321 
1190   1507.5000   219.4090 
1191   1508.1250   220.8556 
1192   1508.7500   223.8068 
1193   1509.3750   226.2962 
1194   1510.0000   228.6339 
1195   1510.6250   232.8781 
1196   1511.2500   235.2355 
1197   1511.8750   231.1420 
1198   1512.5000   229.4479 
1199   1513.1250   236.5194 
1200   1513.7500   239.7306 
1201   1514.3750   236.0476 
1202   1515.0000   230.1397 
1203   1515.6250   229.2548 
1204   1516.2500   225.5176 
1205   1516.8750   220.6202 
1206   1517.5000   220.8793 
1207   1518.1250   227.7753 
1208   1518.7500   233.0694 
1209   1519.3750   231.0413 
1210   1520.0000   224.8592 
1211   1520.6250   220.9300 
1212   1521.2500   220.4767 
1213   1521.8750   220.4007 
1214   1522.5000   219.9890 
1215   1523.1250   222.6721 
1216   1523.7500   228.4460 
1217   1524.3750   229.5387 
1218   1525.0000   224.3131 
1219   1525.6250   223.5023 
1220   1526.2500   229.7871 
1221   1526.8750   230.6440 
1222   1527.5000   228.7244 
1223   1528.1250   228.0506 
1224   1528.7500   228.4619 
1225   1529.3750   236.0630 
1226   1530.0000   240.1896 
1227   1530.6250   239.6093 
1228   1531.2500   234.8163 
1229   1531.8750   231.0272 
1230   1532.5000   228.2693 
1231   1533.1250   221.8003 
1232   1533.7500   219.6391 
1233   1534.3750   225.3839 
1234   1535.0000   230.6672 
1235   1535.6250   232.2451 
1236   1536.2500   232.7940 
1237   1536.8750   231.4541 
1238   1537.5000   228.1737 
1239   1538.1250   221.7925 
1240   1538.7500   218.0775 
1241   1539.3750   217.2942 
1242   1540.0000   216.9691 
1243   1540.6250   218.5282 
1244   1541.2500   219.6822 
1245   1541.8750   219.8737 
1246   1542.5000   220.6845 
1247   1543.1250   222.9017 
1248   1543.7500   225.9747 
1249   1544.3750   226.5638 
1250   1545.0000   223.1365 
1251   1545.6250   226.5312 
1252   1546.2500   234.7593 
1253   1546.8750   239.1500 
1254   1547.5000   240.0010 
1255   1548.1250   239.4120 
1256   1548.7500   237.9135 
1257   1549.3750   231.3941 
1258   1550.0000   226.4001 
1259   1550.6250   231.8813 
1260   1551.2500   236.2155 
1261   1551.8750   235.4594 
1262   1552.5000   235.2675 
1263   1553.1250   233.2651 
1264   1553.7500   226.4388 
1265   1554.3750   221.4887 
1266   1555.0000   225.1644 
1267   1555.6250   228.8410 
1268   1556.2500   227.6493 
1269   1556.8750   223.4196 
1270   1557.5000   219.5809 
1271   1558.1250   218.1555 
1272   1558.7500   217.7034 
1273   1559.3750   217.2725 
1274   1560.0000   217.7928 
1275   1560.6250   219.8685 
1276   1561.2500   225.5383 
1277   1561.8750   231.3201 
1278   1562.5000   234.7292 
1279   1563.1250   235.4385 
1280   1563.7500   233.5441 
1281   1564.3750   228.0478 
1282   1565.0000   224.8638 
1283   1565.6250   231.3103 
1284   1566.2500   236.5656 
1285   1566.8750   238.7040 
1286   1567.5000   237.8232 
1287   1568.1250   233.1732 
1288   1568.7500   224.6879 
1289   1569.3750   219.1080 
1290   1570.0000   220.8008 
1291   1570.6250   228.2109 
1292   1571.2500   234.8838 
1293   1571.8750   238.0043 
1294   1572.5000   237.7364 
1295   1573.1250   236.4835 
1296   1573.7500   235.7326 
1297   1574.3750   232.4895 
1298   1575.0000   226.4475 
1299   1575.6250   220.1365 
1300   1576.2500   218.3301 
1301   1576.8750   220.2382 
1302   1577.5000   225.7419 
1303   1578.1250   232.3399 
1304   1578.7500   237.5807 
1305   1579.3750   240.8190 
1306   1580.0000   243.1016 
1307   1580.6250   244.6811 
1308   1581.2500   245.8184 
1309   1581.8750   245.8530 
1310   1582.5000   245.5050 
1311   1583.1250   246.5413 
1312   1583.7500   247.9903 
1313   1584.3750   248.9806 
1314   1585.0000   249.3999 
1315   1585.6250   249.5580 
1316   1586.2500   249.7203 
1317   1586.8750   249.6572 
1318   1587.5000   249.6811 
1319   1588.1250   250.0438 
1320   1588.7500   249.0854 
1321   1589.3750   243.9981 
1322   1590.0000   241.1598 
1323   1590.6250   245.5731 
1324   1591.2500   244.5531 
1325   1591.8750   243.0022 
1326   1592.5000   247.4270 
1327   1593.1250   248.6965 
1328   1593.7500   244.1467 
1329   1594.3750   236.6442 
1330   1595.0000   240.3597 
1331   1595.6250   243.4088 
1332   1596.2500   241.0879 
1333   1596.8750   245.8061 
1334   1597.5000   249.7815 
1335   1598.1250   250.5454 
1336   1598.7500   250.5900 
1337   1599.3750   250.5074 
1338   1600.0000   249.5841 
1339   1600.6250   244.4361 
1340   1601.2500   239.2843 
1341   1601.8750   243.5052 
1342   1602.5000   242.0961 
1343   1603.1250   234.9165 
1344   1603.7500   240.1142 
1345   1604.3750   247.3298 
1346   1605.0000   249.2363 
1347   1605.6250   248.5532 
1348   1606.2500   243.5612 
1349   1606.8750   234.2332 
1350   1607.5000   236.6112 
1351   1608.1250   243.3255 
1352   1608.7500   240.0178 
1353   1609.3750   231.6270 
1354   1610.0000   235.6625 
1355   1610.6250   243.7122 
1356   1611.2500   245.8368 
1357   1611.8750   245.4055 
1358   1612.5000   243.8295 
1359   1613.1250   242.0324 
1360   1613.7500   240.5917 
1361   1614.3750   238.0171 
1362   1615.0000   233.2230 
1363   1615.6250   226.4100 
1364   1616.2500   219.9535 
1365   1616.8750   218.7540 
1366   1617.5000   222.7404 
1367   1618.1250   230.0249 
1368   1618.7500   235.2142 
1369   1619.3750   238.0805 
1370   1620.0000   238.7109 
1371   1620.6250   237.4949 
1372   1621.2500   236.6762 
1373   1621.8750   234.3584 
1374   1622.5000   227.4894 
1375   1623.1250   221.3923 
1376   1623.7500   221.6353 
1377   1624.3750   228.9335 
1378   1625.0000   235.1080 
1379   1625.6250   237.7468 
1380   1626.2500   238.3820 
1381   1626.8750   234.5962 
1382   1627.5000   226.0817 
1383   1628.1250   225.4097 
1384   1628.7500   232.7306 
1385   1629.3750   238.9147 
1386   1630.0000   242.5534 
1387   1630.6250   243.2883 
1388   1631.2500   242.2630 
1389   1631.8750   240.2990 
1390   1632.5000   239.0712 
1391   1633.1250   237.0525 
1392   1633.7500   232.1942 
1393   1634.3750   224.7851 
1394   1635.0000   218.8071 
1395   1635.6250   218.3044 
1396   1636.2500   221.3860 
1397   1636.8750   223.5336 
1398   1637.5000   222.7417 
1399   1638.1250   227.2937 
1400   1638.7500   235.1000 
1401   1639.3750   238.7009 
1402   1640.0000   235.9286 
1403   1640.6250   236.5115 
1404   1641.2500   240.7290 
1405   1641.8750   238.8578 
1406   1642.5000   236.7104 
1407   1643.1250   238.9440 
1408   1643.7500   238.4140 
1409   1644.3750   234.7953 
1410   1645.0000   228.4667 
1411   1645.6250   221.4844 
1412   1646.2500   219.7133 
1413   1646.8750   220.8294 
1414   1647.5000   220.2410 
1415   1648.1250   220.5251 
1416   1648.7500   224.8229 
1417   1649.3750   229.7576 
1418   1650.0000   231.3851 
1419   1650.6250   229.8209 
1420   1651.2500   224.9948 
1421   1651.8750   220.0154 
1422   1652.5000   218.3916 
1423   1653.1250   219.0942 
1424   1653.7500   218.4684 
1425   1654.3750   218.6392 
1426   1655.0000   223.5836 
1427   1655.6250   229.7024 
1428   1656.2500   232.9067 
1429   1656.8750   234.5277 
1430   1657.5000   237.9088 
1431   1658.1250   240.7253 
1432   1658.7500   241.5040 
1433   1659.3750   242.0923 
1434   1660.0000   241.8971 
1435   1660.6250   239.5663 
1436   1661.2500   234.3116 
1437   1661.8750   228.8688 
1438   1662.5000   222.8011 
1439   1663.1250   223.1724 
1440   1663.7500   231.2496 
1441   1664.3750   237.7478 
1442   1665.0000   240.6342 
1443   1665.6250   241.3502 
1444   1666.2500   241.2533 
1445   1666.8750   240.0175 
1446   1667.5000   236.0165 
1447   1668.1250   228.1452 
1448   1668.7500   221.6977 
1449   1669.3750   220.6156 
1450   1670.0000   224.5396 
1451   1670.6250   227.6391 
1452   1671.2500   225.0267 
1453   1671.8750   226.1631 
1454   1672.5000   232.1772 
1455   1673.1250   236.2642 
1456   1673.7500   235.0504 
1457   1674.3750   228.7771 
1458   1675.0000   221.6089 
1459   1675.6250   222.2166 
1460   1676.2500   229.9336 
1461   1676.8750   236.0352 
1462   1677.5000   237.3623 
1463   1678.1250   239.1408 
1464   1678.7500   239.4464 
1465   1679.3750   233.6996 
1466   1680.0000   227.9245 
1467   1680.6250   229.4493 
1468   1681.2500   233.7379 
1469   1681.8750   233.2042 
1470   1682.5000   227.3140 
1471   1683.1250   221.1295 
1472   1683.7500   218.3051 
1473   1684.3750   217.8213 
1474   1685.0000   218.6538 
1475   1685.6250   222.8533 
1476   1686.2500   229.3515 
1477   1686.8750   233.7633 
1478   1687.5000   233.8887 
1479   1688.1250   230.4832 
1480   1688.7500   231.6545 
1481   1689.3750   232.5499 
1482   1690.0000   229.4583 
1483   1690.6250   233.6041 
1484   1691.2500   239.3389 
1485   1691.8750   238.7536 
1486   1692.5000   237.4677 
1487   1693.1250   237.6485 
1488   1693.7500   234.9158 
1489   1694.3750   230.3849 
1490   1695.0000   223.8089 
1491   1695.6250   219.5342 
1492   1696.2500   220.0997 
1493   1696.8750   223.0702 
1494   1697.5000   225.1521 
1495   1698.1250   227.3450 
1496   1698.7500   225.3679 
1497   1699.3750   220.7044 
1498   1700.0000   219.0326 
1499   1700.6250   219.2570 
1500   1701.2500   222.0526 
1501   1701.8750   227.8999 
1502   1702.5000   231.8687 
1503   1703.1250   233.4953 
1504   1703.7500   230.7453 
1505   1704.3750   225.2912 
1506   1705.0000   227.2759 
1507   1705.6250   227.5114 
1508   1706.2500   222.6792 
1509   1706.8750   224.6852 
1510   1707.5000   232.8825 
1511   1708.1250   239.3005 
1512   1708.7500   241.9927 
1513   1709.3750   240.3223 
1514   1710.0000   233.7560 
1515   1710.6250   235.4374 
1516   1711.2500   241.7216 
1517   1711.8750   243.0496 
1518   1712.5000   240.6405 
1519   1713.1250   236.8456 
1520   1713.7500   231.1278 
1521   1714.3750   226.3565 
1522   1715.0000   224.3631 
1523   1715.6250   226.4444 
1524   1716.2500   228.9014 
1525   1716.8750   224.4932 
1526   1717.5000   220.3328 
1527   1718.1250   220.1389 
1528   1718.7500   222.7554 
1529   1719.3750   230.3236 
1530   1720.0000   237.9092 
1531   1720.6250   241.7586 
1532   1721.2500   242.3999 
1533   1721.8750   243.7577 
1534   1722.5000   244.3395 
1535   1723.1250   239.1545 
1536   1723.7500   238.2926 
1537   1724.3750   244.8996 
1538   1725.0000   248.5071 
1539   1725.6250   248.5811 
1540   1726.2500   245.3056 
1541   1726.8750   243.7580 
1542   1727.5000   246.1200 
1543   1728.1250   247.2344 
1544   1728.7500   245.0571 
1545   1729.3750   237.0762 
1546   1730.0000   228.3808 
1547   1730.6250   233.8818 
1548   1731.2500   239.1059 
1549   1731.8750   235.3965 
1550   1732.5000   229.7435 
1551   1733.1250   224.3080 
1552   1733.7500   220.6751 
1553   1734.3750   220.3924 
1554   1735.0000   222.8922 
1555   1735.6250   230.1358 
1556   1736.2500   236.5522 
1557   1736.8750   238.3136 
1558   1737.5000   236.0944 
1559   1738.1250   235.8669 
1560   1738.7500   233.1215 
1561   1739.3750   224.7658 
1562   1740.0000   222.1213 
1563   1740.6250   229.6839 
1564   1741.2500   237.7894 
1565   1741.8750   240.7414 
1566   1742.5000   236.9644 
1567   1743.1250   229.2926 
1568   1743.7500   231.1036 
1569   1744.3750   236.4744 
1570   1745.0000   239.3599 
1571   1745.6250   236.5245 
1572   1746.2500   233.4940 
1573   1746.8750   230.7661 
1574   1747.5000   228.1057 
1575   1748.1250   227.3593 
1576   1748.7500   225.0453 
1577   1749.3750   229.7383 
1578   1750.0000   235.2984 
2224   1750.6250   232.0910 
2225   1751.2500   226.1055 
2226   1751.8750   232.7936 
2227   1752.5000   238.4191 
2228   2152.5000   282.3849 
2229   2153.1250   295.5231 
2230   2153.7500   300.7290 
2231   2154.3750   296.9775 
1579   2155.0000   296.9871 
1580   2155.6250   300.6620 
1581   2156.2500   296.1180 
1582   2156.8750   296.0804 
1583   2157.5000   299.8267 
1584   2158.1250   297.5257 
1585   2158.7500   299.6663 
1586   2159.3750   302.4582 
1587   2160.0000   300.4178 
1588   2160.6250   296.9758 
1589   2161.2500   289.0396 
1590   2161.8750   283.2524 
1591   2162.5000   289.1149 
1592   2163.1250   289.8734 
1593   2163.7500   294.7047 
1594   2164.3750   301.0164 
1595   2165.0000   299.0881 
1596   2165.6250   296.1909 
1597   2166.2500   299.8630 
1598   2166.8750   301.0881 
1599   2167.5000   300.0210 
1600   2168.1250   301.1997 
1601   2168.7500   298.3669 
1602   2169.3750   296.7627 
1603   2170.0000   300.0333 
1604   2170.6250   297.5536 
1605   2171.2500   291.9335 
1606   2171.8750   293.2758 
1607   2172.5000   292.4495 
1608   2173.1250   295.7590 
1609   2173.7500   299.9343 
1610   2174.3750   299.3207 
1611   2175.0000   297.6427 
1612   2175.6250   296.5208 
1613   2176.2500   294.2600 
1614   2176.8750   296.5720 
1615   2177.5000   298.8546 
1616   2178.1250   298.0582 
1617   2178.7500   295.9677 
1618   2179.3750   292.8027 
1619   2180.0000   292.1168 
1620   2180.6250   291.9066 
1621   2181.2500   287.1565 
1622   2181.8750   290.3017 
1623   2182.5000   292.1057 
1624   2183.1250   289.0469 
1625   2183.7500   290.1860 
1626   2184.3750   290.5136 
1627   2185.0000   285.5040 
1628   2185.6250   285.9738 
1629   2186.2500   283.9915 
1630   2186.8750   278.5160 
1631   2187.5000   283.4780 
1632   2188.1250   287.5950 
1633   2188.7500   288.3801 
1634   2189.3750   285.7791 
1635   2190.0000   283.2964 
1636   2190.6250   286.7554 
1637   2191.2500   289.1411 
1638   2191.8750   288.8066 
1639   2192.5000   286.6523 
1640   2193.1250   283.1414 
1641   2193.7500   282.8865 
1642   2194.3750   282.3008 
1643   2195.0000   281.7593 
1644   2195.6250   281.8308 
1645   2196.2500   280.9941 
1646   2196.8750   280.4162 
1647   2197.5000   279.7686 
1648   2198.1250   278.4789 
1649   2198.7500   278.0594 
1650   2199.3750   278.3102 
1651   2200.0000   273.0847 
1652   2200.6250   274.2414 
1653   2201.2500   280.3551 
1654   2201.8750   280.7991 
1655   2202.5000   278.6020 
1656   2203.1250   275.9532 
1657   2203.7500   274.8415 
1658   2204.3750   273.6692 
1659   2205.0000   269.1997 
1660   2205.6250   268.6949 
1661   2206.2500   269.3347 
1662   2206.8750   271.0449 
1663   2207.5000   273.6629 
1664   2208.1250   273.4848 
1665   2208.7500   270.3046 
1666   2209.3750   270.0086 
1667   2210.0000   271.5496 
1668   2210.6250   271.8839 
1669   2211.2500   270.1782 
1670   2211.8750   267.6440 
1671   2212.5000   266.9260 
1672   2213.1250   267.0385 
1673   2213.7500   267.8560 
1674   2214.3750   267.8094 
1675   2215.0000   269.5422 
1676   2215.6250   270.9052 
1677   2216.2500   271.8702 
1678   2216.8750   271.4250 
1679   2217.5000   269.8469 
1680   2218.1250   267.4236 
1681   2218.7500   266.6233 
1682   2219.3750   268.5914 
1683   2220.0000   271.6539 
1684   2220.6250   275.1664 
1685   2221.2500   276.9842 
1686   2221.8750   277.7028 
1687   2222.5000   280.0185 
1688   2223.1250   283.0715 
1689   2223.7500   284.1993 
1690   2224.3750   279.6936 
1691   2225.0000   276.9172 
1692   2225.6250   274.4576 
1693   2226.2500   272.4236 
1694   2226.8750   269.1628 
1695   2227.5000   265.1341 
1696   2228.1250   262.9193 
1697   2228.7500   262.1452 
1698   2229.3750   262.7176 
1699   2230.0000   262.4304 
1700   2230.6250   259.4049 
1701   2231.2500   258.5986 
1702   2231.8750   259.0612 
1703   2232.5000   254.6082 
1704   2233.1250   253.5254 
1705   2233.7500   258.8109 
1706   2234.3750   257.7397 
1707   2235.0000   250.1534 
1708   2235.6250   249.2341 
1709   2236.2500   255.6223 
1710   2236.8750   253.7713 
1711   2237.5000   247.9689 
1712   2238.1250   252.1186 
1713   2238.7500   251.2768 
1714   2239.3750   246.4180 
1715   2240.0000   252.0759 
1716   2240.6250   253.3328 
1717   2241.2500   246.9494 
1718   2241.8750   250.5299 
1719   2242.5000   252.7752 
1720   2243.1250   245.3711 
1721   2243.7500   245.8270 
1722   2244.3750   251.6268 
1723   2245.0000   249.9058 
1724   2245.6250   246.7071 
1725   2246.2500   250.8318 
1726   2246.8750   252.3844 
1727   2247.5000   248.2177 
1728   2248.1250   248.3992 
1729   2248.7500   252.2988 
1730   2249.3750   246.9771 
1731   2250.0000   243.9075 
1732   2250.6250   249.8132 
1733   2251.2500   244.7682 
1734   2251.8750   238.5646 
1735   2252.5000   245.3666 
1736   2253.1250   243.3546 
1737   2253.7500   237.0291 
1738   2254.3750   243.1609 
1739   2255.0000   240.9851 
1740   2255.6250   235.2774 
1741   2256.2500   242.6582 
1742   2256.8750   240.7065 
1743   2257.5000   235.3947 
1744   2258.1250   238.3725 
1745   2258.7500   237.3390 
1746   2259.3750   232.6867 
1747   2260.0000   234.5548 
1748   2260.6250   235.2085 
1749   2261.2500   231.8480 
1750   2261.8750   233.0484 
1751   2262.5000   234.6022 
1752   2263.1250   230.7479 
1753   2263.7500   233.0967 
1754   2264.3750   233.3140 
1755   2265.0000   230.3547 
1756   2265.6250   232.3230 
1757   2266.2500   231.1643 
1758   2266.8750   229.3212 
1759   2267.5000   230.1802 
1760   2268.1250   229.0673 
1761   2268.7500   228.9083 
1762   2269.3750   228.8593 
1763   2270.0000   228.7917 
1764   2270.6250   228.3414 
1765   2271.2500   229.4462 
1766   2271.8750   229.7547 
1767   2272.5000   229.1686 
1768   2273.1250   228.6749 
1769   2273.7500   228.4821 
1770   2274.3750   228.3621 
1771   2275.0000   229.0449 
1772   2275.6250   229.5611 
1773   2276.2500   228.9555 
1774   2276.8750   228.6366 
1775   2277.5000   228.7040 
1776   2278.1250   229.3090 
1777   2278.7500   230.0838 
1778   2279.3750   230.6822 
1779   2280.0000   230.8801 
1780   2280.6250   231.5975 
1781   2281.2500   232.6019 
1782   2281.8750   232.2677 
1783   2282.5000   235.2419 
1784   2283.1250   238.1665 
1785   2283.7500   237.1654 
1786   2284.3750   233.6335 
1787   2285.0000   233.2687 
1788   2285.6250   232.2808 
1789   2286.2500   231.6685 
1790   2286.8750   232.3299 
1791   2287.5000   231.0598 
1792   2288.1250   229.3131 
1793   2288.7500   230.9297 
1794   2289.3750   231.2685 
1795   2290.0000   231.5950 
1796   2290.6250   230.9600 
1797   2291.2500   232.2309 
1798   2291.8750   232.6774 
1799   2292.5000   230.8081 
1800   2293.1250   232.1973 
1801   2293.7500   232.2489 
1802   2294.3750   233.0616 
1803   2295.0000   231.5288 
1804   2295.6250   233.6386 
1805   2296.2500   233.4810 
1806   2296.8750   231.9649 
1807   2297.5000   232.1521 
1808   2298.1250   233.6374 
1809   2298.7500   233.1355 
1810   2299.3750   232.2017 
1811   2300.0000   233.9203 
1812   2300.6250   233.8904 
1813   2301.2500   232.8808 
1814   2301.8750   233.0866 
1815   2302.5000   235.6902 
1816   2303.1250   234.3284 
1817   2303.7500   233.1327 
1818   2304.3750   234.5297 
1819   2305.0000   235.3435 
1820   2305.6250   232.6387 
1821   2306.2500   234.1414 
1822   2306.8750   236.6725 
1823   2307.5000   235.4178 
1824   2308.1250   234.5457 
1825   2308.7500   238.1284 
1826   2309.3750   237.5511 
1827   2310.0000   234.8801 
1828   2310.6250   237.4659 
1829   2311.2500   239.8013 
1830   2311.8750   236.2703 
1831   2312.5000   237.0678 
1832   2313.1250   240.7621 
1833   2313.7500   238.4694 
1834   2314.3750   236.7635 
1835   2315.0000   240.9659 
1836   2315.6250   239.4010 
1837   2316.2500   237.1425 
1838   2316.8750   240.2899 
1839   2317.5000   241.5387 
1840   2318.1250   237.4590 
1841   2318.7500   242.0736 
1842   2319.3750   243.6514 
1843   2320.0000   239.6570 
1844   2320.6250   241.7498 
1845   2321.2500   244.8963 
1846   2321.8750   240.2326 
1847   2322.5000   242.5444 
1848   2323.1250   246.5151 
1849   2323.7500   244.0820 
1850   2324.3750   243.8993 
1851   2325.0000   246.4117 
1852   2325.6250   241.5129 
1853   2326.2500   242.0220 
1854   2326.8750   245.2348 
1855   2327.5000   243.0502 
1856   2328.1250   243.6583 
1857   2328.7500   248.3078 
1858   2329.3750   243.3915 
1859   2330.0000   245.5087 
1860   2330.6250   248.0093 
1861   2331.2500   244.7101 
1862   2331.8750   245.5260 
1863   2332.5000   248.5265 
1864   2333.1250   243.9739 
1865   2333.7500   247.1042 
1866   2334.3750   248.1430 
1867   2335.0000   244.9534 
1868   2335.6250   248.7608 
1869   2336.2500   250.1895 
1870   2336.8750   245.8146 
1871   2337.5000   248.3852 
1872   2338.1250   245.9355 
1873   2338.7500   245.8052 
1874   2339.3750   248.8143 
1875   2340.0000   245.8305 
1876   2340.6250   246.0460 
1877   2341.2500   248.2905 
1878   2341.8750   244.2927 
1879   2342.5000   248.0638 
1880   2343.1250   246.4100 
1881   2343.7500   245.5704 
1882   2344.3750   247.8944 
1883   2345.0000   245.7591 
1884   2345.6250   245.8018 
1885   2346.2500   246.5391 
1886   2346.8750   242.6993 
1887   2347.5000   245.1192 
1888   2348.1250   241.6456 
1889   2348.7500   239.7800 
1890   2349.3750   241.1655 
1891   2350.0000   243.8151 
1892   2350.6250   241.9183 
1893   2351.2500   245.7230 
1894   2351.8750   244.5507 
1895   2352.5000   245.2666 
1896   2353.1250   246.3055 
1897   2353.7500   245.5552 
1898   2354.3750   248.0205 
1899   2355.0000   246.9747 
1900   2355.6250   247.6414 
1901   2356.2500   247.9252 
1902   2356.8750   246.7184 
1903   2357.5000   248.5874 
1904   2358.1250   246.5715 
1905   2358.7500   249.1090 
1906   2359.3750   246.3048 
1907   2360.0000   248.2243 
1908   2360.6250   246.3183 
1909   2361.2500   248.4749 
1910   2361.8750   246.8916 
1911   2362.5000   247.5789 
1912   2363.1250   246.5620 
1913   2363.7500   246.9387 
1914   2364.3750   246.9226 
1915   2365.0000   246.4481 
1916   2365.6250   246.0087 
1917   2366.2500   245.7207 
1918   2366.8750   245.6537 
1919   2367.5000   244.6161 
1920   2368.1250   244.4123 
1921   2368.7500   244.1680 
1922   2369.3750   243.9934 
1923   2370.0000   242.9091 
1924   2370.6250   242.7316 
1925   2371.2500   241.7079 
1926   2371.8750   241.1870 
1927   2372.5000   240.4147 
1928   2373.1250   239.7928 
1929   2373.7500   238.8701 
1930   2374.3750   238.0339 
1931   2375.0000   236.8727 
1932   2375.6250   236.0014 
1933   2376.2500   234.5858 
1934   2376.8750   233.9429 
1935   2377.5000   232.2850 
1936   2378.1250   231.6166 
1937   2378.7500   229.9888 
1938   2379.3750   229.3965 
1939   2380.0000   227.9037 
1940   2380.6250   227.2884 
1941   2381.2500   226.2173 
1942   2381.8750   226.7056 
1943   2382.5000   227.1175 
1944   2383.1250   229.1284 
1945   2383.7500   231.2790 
1946   2384.3750   234.7236 
1947   2385.0000   238.2029 
1948   2385.6250   242.3647 
1949   2386.2500   246.4139 
1950   2386.8750   250.8262 
1951   2387.5000   255.0878 
1952   2388.1250   259.6328 
1953   2388.7500   264.0632 
1954   2389.3750   268.7032 
1955   2390.0000   272.9296 
1956   2390.6250   277.1335 
1957   2391.2500   280.4194 
1958   2391.8750   283.7917 
1959   2392.5000   286.1826 
1960   2393.1250   287.9896 
1961   2393.7500   289.2410 
1962   2394.3750   290.3162 
1963   2395.0000   291.0200 
1964   2395.6250   291.6065 
1965   2396.2500   292.0677 
1966   2396.8750   292.5338 
1967   2397.5000   292.9084 
1968   2398.1250   293.3361 
1969   2398.7500   293.5908 
1970   2399.3750   293.9539 
1971   2400.0000   294.2200 
1972   2400.6250   294.5698 
1973   2401.2500   294.8364 
1974   2401.8750   295.2354 
1975   2402.5000   295.4041 
1976   2403.1250   295.6199 
1977   2403.7500   295.7647 
1978   2404.3750   296.0304 
1979   2405.0000   296.1334 
1980   2405.6250   296.4172 
1981   2406.2500   296.5394 
1982   2406.8750   296.5728 
1983   2407.5000   296.7238 
1984   2408.1250   297.0064 
1985   2408.7500   297.1066 
1986   2409.3750   297.3853 
1987   2410.0000   297.4688 
1988   2410.6250   297.5223 
1989   2411.2500   297.6844 
1990   2411.8750   297.8894 
1991   2412.5000   297.9267 
1992   2413.1250   298.1366 
1993   2413.7500   298.1845 
1994   2414.3750   298.2744 
1995   2415.0000   298.4241 
1996   2415.6250   298.5175 
1997   2416.2500   298.5543 
1998   2416.8750   298.7653 
1999   2417.5000   298.7643 
2000   2418.1250   298.8619 
2001   2418.7500   298.9693 
2002   2419.3750   299.0765 
2003   2420.0000   299.1818 
2004   2420.6250   299.3129 
2005   2421.2500   299.3119 
2006   2421.8750   299.4393 
2007   2422.5000   299.3536 
2008   2423.1250   299.4090 
2009   2423.7500   299.6193 
2010   2424.3750   299.7376 
2011   2425.0000   299.7896 
2012   2425.6250   299.8841 
2013   2426.2500   299.8864 
2014   2426.8750   300.0173 
2015   2427.5000   300.0576 
2016   2428.1250   300.0999 
2017   2428.7500   300.0288 
2018   2429.3750   300.0143 
2019   2430.0000   300.0536 
2020   2430.6250   300.2291 
2021   2431.2500   300.2343 
2022   2431.8750   300.3363 
2023   2432.5000   300.4296 
2024   2433.1250   300.4641 
2025   2433.7500   300.4956 
2026   2434.3750   300.5699 
2027   2435.0000   300.6057 
2028   2435.6250   300.6830 
2029   2436.2500   300.6650 
2030   2436.8750   300.6407 
2031   2437.5000   300.5461 
2032   2438.1250   300.7536 
2033   2438.7500   300.7896 
2034   2439.3750   300.8730 
2035   2440.0000   300.8272 
2036   2440.6250   300.8351 
2037   2441.2500   300.7401 
2038   2441.8750   300.7997 
2039   2442.5000   300.9330 
2040   2443.1250   300.9884 
2041   2443.7500   301.0090 
2042   2444.3750   301.0391 
2043   2445.0000   301.0656 
2044   2445.6250   301.0954 
2045   2446.2500   301.1084 
2046   2446.8750   301.1476 
2047   2447.5000   301.1989 
2048   2448.1250   301.2329 
2049   2448.7500   301.2695 
2050   2449.3750   301.3401 
2051   2450.0000   301.3543 
2052   2450.6250   301.3409 
2053   2451.2500   301.4091 
2054   2451.8750   301.5111 
2055   2452.5000   301.5359 
2056   2453.1250   301.6877 
2057   2453.7500   301.8485 
2058   2454.3750   301.9722 
2059   2455.0000   302.0489 
2060   2455.6250   302.1467 
2061   2456.2500   302.2319 
2062   2456.8750   302.3280 
2063   2457.5000   302.3941 
2064   2458.1250   302.5179 
2065   2458.7500   302.5945 
2066   2459.3750   302.6017 
2067   2460.0000   302.6965 
2068   2460.6250   302.9261 
2069   2461.2500   303.0392 
2070   2461.8750   303.1435 
2071   2462.5000   303.1172 
2072   2463.1250   303.0646 
2073   2463.7500   303.0345 
2074   2464.3750   303.0385 
2075   2465.0000   303.0082 
2076   2465.6250   302.9880 
2077   2466.2500   302.9607 
2078   2466.8750   302.9749 
2079   2467.5000   302.9611 
2080   2468.1250   302.9779 
2081   2468.7500   302.9408 
2082   2469.3750   302.9420 
2083   2470.0000   302.9647 
2084   2470.6250   302.9611 
2085   2471.2500   302.9260 
2086   2471.8750   302.9548 
2087   2472.5000   302.8979 
2088   2473.1250   302.8771 
2089   2473.7500   302.8354 
2090   2474.3750   303.0073 
2091   2475.0000   303.1689 
2092   2475.6250   303.2417 
2093   2476.2500   303.2655 
2094   2476.8750   303.1900 
2095   2477.5000   302.9768 
2096   2478.1250   303.1132 
2097   2478.7500   303.4015 
2098   2479.3750   303.5253 
2099   2480.0000   303.5800 
2100   2480.6250   303.6773 
2101   2481.2500   303.7387 
2102   2481.8750   303.7863 
2103   2482.5000   303.7735 
2104   2483.1250   303.8492 
2105   2483.7500   303.9687 
2106   2484.3750   304.0658 
2107   2485.0000   304.1027 
2108   2485.6250   304.1210 
2109   2486.2500   304.1639 
2110   2486.8750   304.2594 
2111   2487.5000   304.3391 
2112   2488.1250   304.4533 
2113   2488.7500   304.4926 
2114   2489.3750   304.5240 
2115   2490.0000   304.5522 
2116   2490.6250   304.6324 
2117   2491.2500   304.6790 
2118   2491.8750   304.7454 
2119   2492.5000   304.7945 
2120   2493.1250   304.7470 
2121   2493.7500   304.4802 
2122   2494.3750   304.3631 
2123   2495.0000   304.5326 
2124   2495.6250   304.8310 
2125   2496.2500   304.9884 
2126   2496.8750   304.9934 
2127   2497.5000   304.9520 
2128   2498.1250   305.0155 
2129   2498.7500   305.1273 
2130   2499.3750   305.1716 
2131   2500.0000   305.1762 
2132   2500.6250   305.2630 
2133   2501.2500   305.2874 
2134   2501.8750   305.2461 
2135   2502.5000   305.1717 
2136   2503.1250   305.2211 
2137   2503.7500   305.2466 
2138   2504.3750   305.1761 
2139   2505.0000   305.1930 
2140   2505.6250   305.3407 
2141   2506.2500   305.3822 
2142   2506.8750   305.4363 
2143   2507.5000   305.4592 
2144   2508.1250   305.4699 
2145   2508.7500   305.4388 
2146   2509.3750   305.4934 
2147   2510.0000   305.4948 
2148   2510.6250   305.4318 
2149   2511.2500   305.2348 
2150   2511.8750   305.1867 
2151   2512.5000   305.2940 
2152   2513.1250   305.4633 
2153   2513.7500   305.5102 
2154   2514.3750   305.2571 
2155   2515.0000   304.9716 
2156   2515.6250   305.1527 
2157   2516.2500   305.4619 
2158   2516.8750   305.6082 
2159   2517.5000   305.4689 
2160   2518.1250   305.3354 
2161   2518.7500   305.4617 
2162   2519.3750   305.5627 
2163   2520.0000   305.5816 
2164   2520.6250   305.6366 
2165   2521.2500   305.7023 
2166   2521.8750   305.6348 
2167   2522.5000   305.5753 
2168   2523.1250   305.6470 
2169   2523.7500   305.5884 
2170   2524.3750   305.4352 
2171   2525.0000   305.4998 
2172   2525.6250   305.4026 
2173   2526.2500   305.3365 
2174   2526.8750   305.5398 
2175   2527.5000   305.5742 
2176   2528.1250   305.4951 
2177   2528.7500   305.2974 
2178   2529.3750   305.1979 
2179   2530.0000   304.9795 
2180   2530.6250   304.9845 
2181   2531.2500   305.2846 
2182   2531.8750   305.3793 
2183   2532.5000   305.1333 
2184   2533.1250   304.5245 
2185   2533.7500   304.4130 
2186   2534.3750   304.6288 
2187   2535.0000   304.8832 
2188   2535.6250   304.9681 
2189   2536.2500   304.6763 
2190   2536.8750   304.6187 
2191   2537.5000   304.7621 
2192   2538.1250   304.7729 
2193   2538.7500   304.5557 
2194   2539.3750   304.4406 
2195   2540.0000   304.5793 
2196   2540.6250   304.5860 
2197   2541.2500   304.4883 
2198   2541.8750   304.4609 
2199   2542.5000   304.3419 
2200   2543.1250   304.2333 
2201   2543.7500   304.0893 
2202   2544.3750   303.6318 
2203   2545.0000   303.4775 
2204   2545.6250   303.7358 
2205   2546.2500   303.5180 
2206   2546.8750   302.8658 
2207   2547.5000   302.6448 
2208   2548.1250   302.6335 
2209   2548.7500   302.5950 
2210   2549.3750   303.0444 
2211   2550.0000   302.9837 
2232   2550.6250   303.2165 
2233   2551.2500   303.5689 
2234   2551.8750   303.4977 
2235   2552.5000   303.0092 

